Timestamp,AF3,F7,F3,FC5,T7,P7,O1,O2,P8,T8,FC6,F4,F8,AF4,Label,Command,Confidence
0.0,-8.618389111436258,0.5846538052421129,-0.5821913607441978,-1.7323866833549357,-1.6639531757581505,4.9105611410562275,0.23520454761500775,-4.275387769009065,2.8243569529996493,-3.0066085146469472,-4.552537852759147,-0.43872753155807187,2.6934448671390063,-6.095562153122756,0,Neutral,0.973
0.00390625,7.538170700860753,15.677521111352721,15.572370661227044,11.323825463980578,6.777432802066435,18.229231122764443,17.667886043724568,6.251420703315681,18.002690430485593,10.710726846864429,5.261596658689845,12.7049035993785,16.295453758951137,8.894118888188025,0,Neutral,0.973
0.0078125,18.945393401542532,26.31841395216011,25.689016529077445,21.5559230033471,14.124685427940106,27.48066378811886,29.692379195404172,14.91172185203263,27.837757061090905,20.52127119860212,14.082765994978859,22.346245805225156,26.86165431198391,17.844066314814626,0,Neutral,0.973
0.01171875,23.829614549510975,30.377690513117166,28.35728197268398,27.551922495320422,19.16431759797231,30.4455026844574,34.29381105305785,19.850807959254738,31.187076193454608,24.45258440757409,20.438262821877927,26.4189319188816,33.0037342876654,18.800952631415505,0,Neutral,0.973
0.015625,24.11750133679101,28.782694728093922,27.058626970623482,29.3734762699454,21.25012151585437,27.942627193716817,33.45295417363774,20.36469494066701,31.10681555754878,23.265334453478204,23.11442157764967,25.22666516147716,35.442263312985695,14.895528532043631,0,Neutral,0.973
0.01953125,23.514472291100528,24.27761422878049,26.244769423548263,27.9187988596465,21.09451852733888,23.280003391884424,30.786481958047606,17.91953932914688,31.040705850368465,19.681593975656785,22.48637625173481,21.254501824380174,35.99175061785821,11.445578157510806,0,Neutral,0.973
0.0234375,24.509207133369834,19.4697074743686,27.351659071053618,24.68131078921627,20.291027554122678,19.88318764459158,28.60552894653732,15.267927034783026,31.427990185168156,16.65654573934857,20.59372115160819,17.664935853845066,35.89725003761006,11.605854962358064,0,Neutral,0.973
0.02734375,26.550826596704383,15.893285689558079,28.24898358549416,21.5402881938627,19.70674605241922,18.895711875661313,26.86613883703349,14.246634442208002,29.941892666191865,15.891149593640428,19.325755116039595,16.340860014657046,34.83067987930182,14.376037305889877,0,Neutral,0.973
0.03125,26.81091715145522,14.394422393076693,25.88314865187409,19.874502614987488,18.530801348593503,18.794890562570842,24.403834503670975,14.544454928522422,24.438008465463597,17.386211958795784,18.455417052766975,16.94931162793187,31.312457306146698,16.55520557618926,0,Neutral,0.973
0.03515625,23.004045424427467,15.510573517917571,19.242608957125075,19.559844612984058,15.094013728681183,17.27626647441399,20.865183606475185,14.52206880668274,15.25242469007907,19.946319608581796,15.794346256566827,17.689910428828306,24.2164714697873,16.41983024117703,0,Neutral,0.973
0.0390625,15.83505258100707,18.86322700971469,10.244925601231214,18.99420179221475,8.56788917795212,13.701698194617293,17.528001134857845,12.971776211052019,4.918573749250314,22.018909137721266,9.513651273020198,16.905705694494465,14.230452888897709,15.342004122717826,0,Neutral,0.973
0.04296875,8.723452415680782,22.425123016981544,2.322733259705723,16.371294505138458,-0.07920286074911548,9.82622519107754,16.3855564417782,10.149838995174711,-3.6742127257807264,22.377802928346945,0.3141537469578026,14.252184710425059,4.101071362124784,15.867877393159361,0,Neutral,0.973
0.046875,5.010139507622789,23.20370166660597,-1.8513410446849126,11.250459567482896,-8.491715402848602,7.878512303127287,18.261983640302393,7.5034136672586085,-8.679269528714888,20.527151706128645,-8.663478856831281,10.771903581046987,-2.845975815160463,18.508439794280644,0,Neutral,0.973
0.05078125,5.2956454354903535,19.269185513553285,-1.8632150959060914,5.1485983993029265,-14.157643461086508,7.73849559208808,21.548082864122055,6.580232510838297,-9.642938486312257,16.838068179780496,-14.053332518145165,7.897621630940458,-5.089556530697295,20.625630049186462,0,Neutral,0.973
0.0546875,7.20332262480457,11.23374245838875,0.48341926446330935,0.6196215443525925,-15.641839424643397,6.357062613569124,22.817711003519026,7.820214022601951,-7.440985858791802,12.312942079200097,-14.65224526133843,5.981906377272154,-4.174315026941638,18.352621910011965,0,Neutral,0.973
0.05859375,7.428137304347558,1.6949014809488543,2.4604415355923837,-0.5200590682181626,-13.315656575802725,0.49605103026379194,19.028781927170133,9.823218998174799,-4.037441040262455,7.869160788304533,-12.1090172604602,3.565487744357376,-3.4066655194975604,9.612856545765371,0,Neutral,0.973
0.0625,4.204112991164475,-6.7230520430350555,2.078380338679852,1.441956782763204,-9.325585949363694,-9.747739294711176,9.598023259351876,9.723167200632236,-1.5833230895459085,3.444871746243495,-9.579191172318133,-1.7157243281514936,-4.943782571668911,-4.116810485821559,0,Neutral,0.973
0.06640625,-1.5386583018512687,-12.88577576457224,-0.8304676343697831,4.05588180212013,-6.622222965433206,-20.12706311082094,-3.122772895919652,4.863294897881251,-0.9395769570244573,-2.231214151177373,-9.547659576836526,-11.121326740673597,-7.907367583294142,-18.2691125763982,0,Neutral,0.973
0.0703125,-6.981201345739174,-17.216674551878054,-4.771299373791635,4.052438150479598,-7.204655202917408,-25.0059892230923,-15.044871824253402,-5.24592541464584,-0.9205358673921838,-10.55520237205059,-12.39790545706179,-23.23246443827171,-9.21318160140094,-27.544032516776735,0,Neutral,0.973
0.07421875,-9.639265336628252,-20.69616939520226,-7.998600314389316,-0.634497004156394,-10.581471067859786,-21.347933614513213,-22.3182518744976,-18.335335211334368,0.6163450694538394,-21.219016386889354,-16.508977539812363,-34.03333784831139,-6.331737360369462,-28.96524683729189,0,Neutral,0.973
0.078125,-9.401963793390193,-23.643724432564614,-10.176945037904177,-9.446691734092898,-13.925010828093557,-10.684636571245374,-23.093108468813547,-30.676822945416735,4.616781258097803,-31.301038169143506,-19.558955359579212,-38.88875065538609,0.4621527813701092,-23.84130789457411,0,Neutral,0.973
0.08203125,-8.712653156600574,-25.057224022856243,-12.703988860280457,-19.425364465878296,-14.249936672827223,2.2433427836161517,-18.288445923232604,-39.07888356110559,9.737721626971064,-36.52039806294417,-20.078485456939934,-35.43941635343731,8.246882625100122,-17.10335375106402,0,Neutral,0.973
0.0859375,-10.672477421884278,-23.159061301269134,-17.078136949251046,-26.933753746999763,-10.917423068893145,12.661867802460748,-10.903650852462132,-42.04997212279399,13.376996040334015,-34.12750141687379,-18.312944842997243,-25.362082496641545,13.668422004044816,-14.078684225050592,0,Neutral,0.973
0.08984375,-16.602727655442127,-17.043552426071045,-22.72082725886161,-29.571419218350872,-6.22910305185126,18.237407019446657,-4.173806888288049,-39.78813975661791,13.760252242313042,-25.27734213905051,-15.925966143336321,-13.4039632710691,15.15648925725329,-16.87353112668431,0,Neutral,0.973
0.09375,-24.937731401913542,-8.07216955518289,-26.538412446054448,-27.025887210864873,-3.563024357912862,19.58476638545728,0.19543837891192728,-33.72221687214208,11.286224740989303,-14.729426822913558,-14.76202180098079,-4.3589435182217,13.584919788313055,-23.259224199938036,0,Neutral,0.973
0.09765625,-32.18582282740332,0.456279257677738,-25.01039662901195,-20.698769743949303,-4.59912360487962,19.072671229027474,2.469007576623214,-26.10904314153821,8.254870969301695,-7.7518263967464165,-15.502351516639258,-0.3773851722265514,11.422457070533413,-28.97139605266109,0,Neutral,0.973
0.1015625,-35.258797097960375,5.241329017168309,-17.11846840492972,-12.754491948553232,-7.841358806222899,18.82191564134021,3.8782354976811306,-19.378998750997667,7.334137028464538,-6.693579607880565,-17.15520898194263,-0.40953351985487063,11.144764217446424,-31.17368056683223,0,Neutral,0.973
0.10546875,-33.50517493608661,4.916829588632191,-5.469570209846243,-5.1784626375743485,-9.651958707279675,19.06864188188135,5.184982825426071,-14.999591007607732,9.789536810971804,-10.096761641583784,-17.690379427760735,-1.7026143357970973,13.587195425138637,-29.92760669601763,0,Neutral,0.973
0.109375,-28.828961077565953,0.6627340110623245,5.475957397146886,0.8790814081782211,-7.119086261037734,18.119041799207437,6.0614247532086045,-12.63544565065391,14.526365025603813,-14.642210006238912,-15.283997113825134,-1.936486442012576,17.136925466926833,-26.85577567349023,0,Neutral,0.973
0.11328125,-23.771623186958756,-4.528853034215359,12.562672762198028,5.322745492566842,-0.443111069281835,14.191613054609633,5.767010854852259,-10.6557514227046,18.58864951264266,-17.56349022239561,-9.357436912017935,-0.5212881785158194,18.754055161764786,-22.916957318956204,0,Neutral,0.973
0.1171875,-19.32763513790983,-7.257178737053551,15.80584669659158,8.841724836681202,7.29064471803843,7.722870612221233,4.383629762870078,-7.71808406893955,19.008815473644844,-17.50868086372562,-0.9327240329238948,1.5399786877748711,16.498836584807798,-17.526259688639477,0,Neutral,0.973
0.12109375,-14.468040950009406,-5.207974534432799,17.502236127017664,12.242405250619024,12.655917672184037,1.8358662217147805,3.3324403624303898,-3.878448741539973,14.850788055583015,-14.18649926471846,7.769888607626417,2.872936410238386,11.39909971098619,-9.590032222384409,0,Neutral,0.973
0.125,-7.581584967659588,1.7460110900918544,19.522040609749368,15.704550613817588,14.168809056474252,-0.05608830247301147,4.649125696660215,-0.3020680267845869,7.7842000882377365,-8.126450686353671,14.345189606189354,3.1554330231408594,6.721342059673356,0.6644196560889645,0,Neutral,0.973
0.12890625,1.6792835278997216,11.378918310113901,21.2780058961245,18.48795800322771,12.418684338186564,2.253381522061243,9.598875408310201,1.7711467581428721,0.6248932540370187,-0.7189243916520354,17.411518655859705,3.6551871107945524,5.215405699875459,10.808535023362401,0,Neutral,0.973
0.1328125,11.716963098905493,20.074772568940215,20.22686639732758,19.335294357120823,8.787271835299627,4.650441092213317,17.502208262824773,1.8736837671190323,-4.844707185274439,6.248641968486325,17.32124885884882,6.225825411506549,6.784075119027428,17.27133898051847,0,Neutral,0.973
0.13671875,19.852357684759156,24.372586125007935,14.373717188522445,17.182888129826743,4.485337171482033,1.689323796485759,25.406089624486217,0.823698179120641,-8.9439122229294,11.60442138151503,15.78195702753547,11.436226409478627,8.495229334344641,17.683816307511858,0,Neutral,0.973
0.140625,23.998959220832585,22.270860485405585,4.403502955738765,11.719475364683431,0.2829357204612245,-8.706010796858743,29.13520703327922,0.7302672677552999,-13.438846662908668,15.364997756561216,14.451695379535943,17.52507438229574,6.9099444142307425,12.754033771413349,0,Neutral,0.973
0.14453125,23.977796088568972,13.95984614981044,-6.429470433946548,3.789857976103783,-3.6915169734159297,-23.170333445774236,25.68607960583454,3.875663632277757,-19.86467325449418,18.195085681513117,13.475000596415795,21.16033222004621,0.8795987448713531,6.193056175639464,0,Neutral,0.973
0.1484375,21.51494002015375,1.917261889428945,-14.399971724700826,-4.433119586844155,-8.103902135095623,-35.25620863870307,15.498153587344417,10.814895613239534,-27.98523426016459,20.267993548611795,11.226904826460334,19.33740267770403,-7.539486061118952,2.481133872381036,0,Neutral,0.973
0.15234375,18.830034534761964,-9.978082728370973,-17.61914155628886,-10.078576621374609,-13.981714553099248,-39.95444330522246,2.500487269767362,19.483784032576843,-35.45065361115114,20.677515667549084,5.638771165703591,11.100413074189584,-14.84913968298889,3.9026688109469454,0,Neutral,0.973
0.15625,16.89565522537279,-18.291768714406203,-16.963026651141167,-11.1752002178108,-21.730077096373705,-36.70352355861003,-8.49647765807939,26.457055275484592,-39.05263135073703,18.10634827681816,-3.846664507825652,-1.7027633167789458,-18.917292463881193,9.162697139432112,0,Neutral,0.973
0.16015625,14.882044205921078,-21.682603548733823,-15.201728668024657,-8.123066138984699,-30.350212515511302,-28.979280168925406,-14.955492258140897,29.146575586589755,-36.76743464083017,12.269315465734014,-15.185775849283415,-14.917187459365858,-20.38127308218004,14.70161392915958,0,Neutral,0.973
0.1640625,11.332178238939242,-21.046228339792236,-14.940282714850781,-3.644033593928587,-37.5565970750328,-21.203523796990808,-17.64813161249637,26.864322528369666,-29.059873281251537,4.692925907299551,-24.472044323454956,-23.841050179667327,-21.64914244975837,17.360571823636235,0,Neutral,0.973
0.16796875,6.00446615656106,-18.26309998130673,-16.658591507030103,-1.151026861881142,-40.84767334988677,-15.463084488707656,-18.96631480735494,20.375781803324475,-18.556996410881144,-2.0673307373342724,-28.21480745957351,-25.60285791877802,-24.517463883095186,16.065856994395926,0,Neutral,0.973
0.171875,0.655237308607904,-14.932060289478423,-18.372969073722338,-2.773926455477618,-38.89503053864936,-10.562212186928882,-20.369463955803297,11.250786165656022,-8.433432129114232,-5.973944430039432,-25.61626586377718,-20.75244331890966,-28.3558308187897,11.661497613348839,0,Neutral,0.973
0.17578125,-2.034216677817392,-12.087451800941658,-17.508905934937356,-8.223111299328572,-32.36102605642609,-4.036422352556701,-21.283115571235484,1.7310780916918813,-0.5508431799862032,-6.378016223815767,-19.083519311536847,-12.833078978968155,-30.271973960514714,5.785196016543564,0,Neutral,0.973
0.1796875,-0.581931009807368,-10.52360408460349,-13.547479836611604,-14.995446821364185,-23.605298940880648,4.746108860470278,-20.10278500617365,-5.680973257552923,5.456699677015064,-3.8904816757387666,-12.44792172491598,-6.071553320041817,-27.144719749800885,-0.18341752579158743,0,Neutral,0.973
0.18359375,3.84564902598695,-10.77975985116848,-8.909945287496143,-19.89001069564732,-15.362186474205085,13.229817310188427,-16.132838579859307,-9.526013144101338,11.315441788038811,0.05283383660280705,-8.191685877993915,-2.83854978903562,-18.03098480656821,-5.736482834011513,0,Neutral,0.973
0.1875,7.983306626110891,-12.61892880231786,-7.063643950077883,-21.069879884770327,-9.074836894124065,17.43178959765098,-10.825759553085296,-10.51255686527716,17.926252372864045,3.4677806145604464,-5.882317089042449,-2.7032034676360417,-5.243380197807301,-11.078778390170019,0,Neutral,0.973
0.19140625,8.787197383603583,-14.703306162403564,-9.542044504510347,-19.21466870710212,-4.013054157523144,15.389154118874233,-7.322744853773288,-10.875338069587086,23.78264570048058,4.14966469926381,-3.0626893926960674,-3.4791603841298344,6.734887639465019,-15.98859860617752,0,Neutral,0.973
0.1953125,5.700688683519426,-15.040878862391546,-14.493114652758965,-16.755704149115648,1.9535625255359368,9.190984108679695,-8.34188880405496,-12.186600947959562,25.671137461469517,0.49131889589696515,2.2555198446289797,-3.11831267676192,13.990752576224391,-18.743062840182052,0,Neutral,0.973
0.19921875,0.9425406888155277,-12.07640621105826,-17.824518478146004,-15.781318526980279,10.31691711367632,3.6920766968027743,-13.719551911068319,-13.80735187976784,21.24011392639296,-7.280834609311693,9.672618654828401,-1.0440668686721613,15.7633228164144,-16.909580667378293,0,Neutral,0.973
0.203125,-2.4342085382700835,-5.76201909561227,-15.946391702531688,-16.342741481636356,20.26346096610468,2.9446156959242664,-19.664906194390188,-13.645935502526044,11.256356999881135,-16.468800364672504,16.573708318772972,1.742166963845467,14.78553570583605,-10.000200283277499,0,Neutral,0.973
0.20703125,-3.1065318118058647,2.274980850292507,-8.171730043878727,-16.388877409959218,28.821225788726405,7.235348046867687,-20.848050812784297,-10.41884588922399,-0.3639296373071548,-23.018957660911877,20.020789582515746,3.683822788459149,14.870636171695987,-1.2666786084430715,0,Neutral,0.973
0.2109375,-2.5911992689716143,9.89055919682169,2.8508230318942633,-13.141323391706921,32.73876211138291,12.977997663318543,-14.071882125817865,-5.175396872417245,-8.92524568816613,-24.0694302819276,18.72886544515785,4.174029962227766,17.568607335134143,3.9051160511734895,0,Neutral,0.973
0.21484375,-3.9062122397686463,16.037753666423782,13.038224108970956,-4.882796359796798,30.655502730834574,15.39960212177337,-0.6549044961376952,-0.8114890348539147,-12.140172343430196,-19.853916577060428,13.8221698426301,4.400343601814241,20.68667332744576,2.0881673547488075,0,Neutral,0.973
0.21875,-8.749137543205716,21.213630698367986,19.767055414425485,7.791578272312872,24.003418744378553,11.85052323031627,14.435491719978213,-0.10481821703729001,-11.685373491778622,-13.104879727563283,8.164932379416086,6.541043088901742,20.061800483460473,-5.277315225764814,0,Neutral,0.973
0.22265625,-15.647481662107824,26.280144757177784,23.492270851461075,21.882494685641955,16.069681513184307,3.2619210124917553,25.954829773088452,-3.73509841401628,-11.524586633940324,-6.478551103754076,4.723047104279644,11.738837861598846,13.183876278632034,-12.796248413152858,0,Neutral,0.973
0.2265625,-20.86330432078187,31.01776715720102,26.7427583617447,33.27614099601501,9.959046640491309,-7.042033010131784,31.52474460822754,-9.647027783512021,-14.113591715846903,-0.592164853757553,4.7245351620297535,18.686035786317454,1.5022190203720218,-15.01567199558375,0,Neutral,0.973
0.23046875,-21.23414994604296,33.933516711118635,31.329980609965244,38.83708989171807,6.944345510119994,-15.7792276119497,32.242614634539045,-14.256486886095432,-17.974232634399723,5.455006999355037,6.811333982212804,24.140311553634163,-10.597378244326073,-10.092863733368223,0,Neutral,0.973
0.234375,-16.391738904150642,33.38939338851141,36.17795499761,37.95750313869709,6.268411287655241,-21.27951516895956,30.753911493246168,-14.635842655113816,-19.121358415118255,12.029077463595755,8.124812619545995,24.857792689384578,-19.073140926151193,-0.5617059041080592,0,Neutral,0.973
0.23828125,-8.722931181366018,28.906826024930208,37.75588956858144,32.49923364760277,6.162589733277736,-23.362788090877537,28.834517683524773,-10.033929750293114,-14.959519057961892,17.8577767816061,6.658471016347134,19.47589205724964,-22.832374634422823,8.953109044081522,0,Neutral,0.973
0.2421875,-1.5170216159303291,21.57987327758425,32.93389424849179,25.378118648135395,5.023065247383554,-22.370397834815567,26.536437150285916,-1.8667435652101145,-6.806498309599192,20.889726713369384,2.7844410984021883,9.278667763169718,-23.674988485752166,14.994662783377777,0,Neutral,0.973
0.24609375,3.2227526693952906,13.492397585101317,21.8957348287405,19.04915229525439,2.1308831384043647,-18.511025331953523,23.130234111525603,7.310872234886492,1.2034895748832297,19.909383874036912,-1.3700078973709215,-2.444430372714334,-23.991771324809232,17.11292250178504,0,Neutral,0.973
0.25,5.968724903347871,6.815819101556461,8.48541772139097,14.819716031955737,-1.9958256885389813,-11.874841046945063,18.441937658498446,14.945769509265498,5.540697727751269,15.374216325927856,-3.8271131322814314,-12.06864032817095,-24.36763556938925,17.273441390944512,0,Neutral,0.973
0.25390625,9.06813662109751,3.114525374729826,-2.4493574592198915,12.810218924734302,-5.696432040382609,-2.8463694727748177,13.313797883345458,19.320406848055182,5.872357383737529,9.152435598913677,-4.116165095015302,-17.452265443197504,-23.143054609089592,17.536045484713025,0,Neutral,0.973
0.2578125,14.540237732622346,2.786305894374072,-8.424509655979985,12.045688944502782,-7.112495973055655,7.423313295270449,9.177108629987256,20.04938359377671,4.777541609006372,3.7232512313293364,-3.3130435344188647,-18.866319364471295,-18.202147011218813,17.874874973671215,0,Neutral,0.973
0.26171875,21.818813895135463,4.5950691245224,-10.550366697764638,10.860079245125453,-5.704488678917956,16.831107586879124,7.316554131273329,18.154882819333626,5.24320528358401,1.313273406202221,-3.2776487188293366,-18.431388127008404,-9.248207126135467,16.143100404324947,0,Neutral,0.973
0.265625,27.50413682156855,5.816062977290585,-11.851361232129323,7.9330902193245105,-3.044509132280769,22.819420559595343,8.051325409494014,15.473653150250875,8.402591191603017,3.0494326910513165,-5.721942280204008,-18.445541575165777,1.5846189653937566,10.542112564993278,0,Neutral,0.973
0.26953125,27.744041002363925,3.4361184077496607,-14.399501852890118,3.3261579883074233,-1.8724465280764742,23.660929895866815,10.056182921969379,13.431227728966519,13.257509783864286,8.23381988053011,-11.342864422424736,-19.802633809237733,11.282950626698112,2.342359435642477,0,Neutral,0.973
0.2734375,21.41051929318204,-4.091069059856178,-17.720296637210126,-1.4849757529546765,-4.015167864163579,19.896246399455958,10.570584356603334,11.94187014983477,17.952199843161207,14.271501970897422,-19.277929651234206,-21.560106269361086,18.057699761152183,-4.109875875329078,0,Neutral,0.973
0.27734375,11.271571068635525,-15.70993490348241,-19.586600550926462,-4.673737301880126,-8.888529428231701,14.67373216748902,6.932702328659513,9.453479017487767,21.056359653235674,17.77490121009229,-27.247410670854862,-21.86577983047751,22.074108507398897,-4.608282275036962,0,Neutral,0.973
0.28125,2.058969900556707,-28.08256135323497,-18.252816284593756,-5.458312889323998,-13.728390165200679,12.13635146680478,-1.465722795102478,4.360360134545874,22.05445080310404,16.39180317655231,-32.44564501416345,-19.615219947519407,24.571768873809493,1.162821037398108,0,Neutral,0.973
0.28515625,-2.9174194299528717,-37.194736913075026,-14.156777303123322,-4.918195841718789,-15.293099245472474,14.568474258227964,-12.40992333720537,-3.2344873410247215,21.315928198348427,9.987296229688344,-32.83471713515079,-15.652175849443491,26.60915917850166,8.726811280928718,0,Neutral,0.973
0.2890625,-3.8094587373434603,-40.194893572580945,-9.779576740602275,-5.527889265764106,-11.9086968335807,20.45996128324883,-21.99465702874495,-10.953434800697423,19.871097471113565,0.35580451505539407,-28.23472054264553,-12.393151035193009,28.393296670225702,11.722252243244403,0,Neutral,0.973
0.29296875,-3.488680262210563,-36.41344665848841,-7.899516562317824,-9.470577939933241,-4.620742873202745,25.325290209183326,-26.89952966799286,-15.49774183847647,18.811762689034225,-9.956732192622132,-20.49580140926072,-11.89241391177554,29.19238278685823,6.34434946488033,0,Neutral,0.973
0.296875,-4.904545162884292,-27.38935859815219,-9.62049114035886,-16.91546710516075,3.374151802132946,24.947416683379597,-26.254829041263847,-15.002638038903843,18.312248592919154,-18.696932918587173,-12.377948739545051,-13.830179943697097,27.685873089089206,-6.120031291777151,0,Neutral,0.973
0.30078125,-8.650046461226985,-16.28637144171492,-13.55015654166503,-25.624362564159476,8.850502518693494,18.475026158381397,-21.788899173628604,-10.486679477952308,17.08097885140927,-24.456082173408944,-5.700701868404412,-15.174155734827394,22.914980885812376,-20.37133033679639,0,Neutral,0.973
0.3046875,-12.492791388035704,-6.7738550458342965,-16.633250657143243,-32.16577760711803,10.783541941940708,8.68507997092693,-16.151749886794306,-5.213338400025051,13.132982823030293,-26.84780351722911,-0.14732654934027573,-11.990356167396053,15.506746754047445,-30.603837193831215,0,Neutral,0.973
0.30859375,-13.291822645650717,-1.4479448437800593,-16.14565487021703,-33.83783785356348,10.84734707246652,-0.7604668510884687,-10.852905067699716,-2.5931908797553165,5.529405414484571,-26.387090464581558,6.201378315407002,-2.2132900823207518,7.9295160003906275,-33.73320689898399,0,Neutral,0.973
0.3125,-9.887377521387304,-0.6151982919991335,-11.54223732436649,-30.037906158265002,11.724890264218454,-8.372081862344249,-5.674614058860846,-4.314582832438954,-4.492107091679553,-24.159785850100654,14.940834257892229,12.594473744941803,2.9901319223752485,-30.445300681114407,0,Neutral,0.973
0.31640625,-4.399592475488565,-2.370544091806581,-4.69970034010838,-22.318683634288863,14.798685640187545,-15.320722659837195,0.04826515153458921,-9.779962863078554,-14.148686364911427,-21.43176446233959,25.553203266083177,27.811847450333147,1.6816774196859894,-23.96993371745389,0,Neutral,0.973
0.3203125,-0.5911707567834918,-3.8903081769624657,1.7076529692709566,-13.297035932225208,19.13581029455216,-23.134696121035876,5.8241467922700965,-16.678906957154148,-20.937232336237116,-19.190705088282108,35.20105288537045,38.321075624474084,2.428675664703027,-17.67962943641853,0,Neutral,0.973
0.32421875,-0.8124110965851926,-3.0108662992706883,6.265804556411269,-5.201092278563566,22.14850267959811,-31.065994345575604,9.833912422505229,-22.041062126018915,-24.01862102665644,-17.59972494128192,40.3975194026355,41.30542112024405,2.4066969070522726,-13.062687528922341,0,Neutral,0.973
0.328125,-4.314658964329328,0.8133295478817357,9.59941579347957,1.104653925848096,21.091846807262982,-35.780754441578125,10.31442248715997,-23.433193191814965,-24.14638746995542,-15.798907008070342,39.402785871554244,37.43672261364026,-0.2834836187462631,-9.463951680671517,0,Neutral,0.973
0.33203125,-8.15105774882315,6.55455689121666,13.40425504949971,6.045290543637273,14.587287169837861,-33.82253810573622,7.13371361949216,-20.14476981937615,-22.509694488368126,-12.657433803235946,33.46362378813884,29.888689683117576,-5.193019452645448,-5.738850349422303,0,Neutral,0.973
0.3359375,-9.646794174426734,12.381779254086835,18.545683116713356,10.333562058222114,3.544722113791345,-24.771835345408128,2.297938793768042,-13.731531995800578,-19.63772762451492,-8.099059396538697,25.87531384278894,22.208354208808103,-9.735352549487304,-2.1553974202711212,0,Neutral,0.973
0.33984375,-8.43316626649884,16.566936739742275,23.695096500243075,14.04977888533411,-9.102095704704455,-12.322865429992147,-0.8757946215264054,-7.06482927210612,-15.208689106469649,-3.5438491218217325,19.691488724090483,16.620463630949654,-11.088366666840221,-0.4438779507378926,0,Neutral,0.973
0.34375,-6.44745968565908,18.22946434247574,25.87007760413895,16.7130600650126,-19.839575110046948,-2.160425471140223,0.44535445335388224,-2.192436852208782,-8.676731495611413,-0.6716778769492747,15.888089266069754,13.536021649189099,-8.658824561045437,-1.6954833597345997,0,Neutral,0.973
0.34765625,-5.869353785131994,17.763906703084395,22.779074871379922,17.953092320711278,-26.35513730914434,1.8071439519372523,6.599817774491477,1.1912325764158003,-0.032219648393141787,0.3744110019869126,13.158105662026053,12.010505545249833,-4.9388290275977,-4.193097094265543,0,Neutral,0.973
0.3515625,-6.826089696456615,16.47485925603321,14.87712076047354,17.680585997498245,-28.616175502803543,-0.1351851944482489,14.585462425911112,5.186868948728955,9.77791645425722,1.4748377830221375,9.21595542280345,10.579639188195566,-3.5934535767801368,-3.700250187735155,0,Neutral,0.973
0.35546875,-7.0451998621659175,15.282833661859144,5.057634102636303,15.633446047011294,-28.630198806914564,-4.232762032025332,19.620683228056546,11.550521285264097,18.85303711591216,5.153042362048634,2.633495048433891,8.050110535867729,-6.309068139040998,3.458209434379988,0,Neutral,0.973
0.359375,-3.825054046387388,13.586954059953815,-3.6228591174930327,11.30024945945764,-28.875453331467845,-6.204514794429326,18.454437927966662,19.93150595106912,24.855885637606473,12.552828348764029,-5.895238278982144,3.9917921206554383,-11.181589106324958,16.963715377096044,0,Neutral,0.973
0.36328125,3.524194621247225,9.642871698094845,-9.894541980321078,4.719269986618264,-30.228297399003033,-3.972838582763379,11.680588003540091,27.98055035453856,26.0736476342811,22.43861901101978,-13.686486066080555,-1.1727359601758873,-13.976243242812872,31.784613965182004,0,Neutral,0.973
0.3671875,13.001818320773731,2.301266536948539,-14.405801940122592,-2.718447427330613,-31.004193441493264,1.5615688891955717,2.8248833637974733,32.99008044828977,22.487575989377323,31.846650163901547,-17.768959093183724,-6.495275776534722,-11.3154934308369,41.13815536403391,0,Neutral,0.973
0.37109375,21.458404720314412,-7.495232239311721,-18.422216563507607,-8.587083294314962,-28.236171345896842,7.771712506949833,-4.88856136901863,33.41410485198867,15.888016638394527,37.693900943975585,-17.106577117508138,-11.184870845861932,-3.4475219532760484,41.12194254788273,0,Neutral,0.973
0.375,26.776534363405652,-16.779608587999,-22.30093253735438,-10.809698573341736,-20.264237184765182,12.293243227131576,-10.84366388633987,29.227277540231626,8.65029750877673,38.21883260852085,-13.504281965733645,-15.298031377192467,5.712422609742513,33.46935005656804,0,Neutral,0.973
0.37890625,28.874090682263628,-22.13817116319181,-24.829178560434393,-8.944568636815264,-8.31022894462826,14.173988026441544,-16.3893680349519,21.633208264289934,2.059555469652283,33.632073763658646,-10.336822719103875,-19.81027343383736,11.624282768168733,24.08295443152175,0,Neutral,0.973
0.3828125,29.163874699023896,-21.63993916146005,-23.99381325535199,-4.397111717744595,4.178732369967133,13.616806686816211,-22.469614117229643,12.914018033784046,-4.339114602754797,25.892994029417636,-10.188649544249433,-25.724247305318773,12.713627823249418,18.3904736991554,0,Neutral,0.973
0.38671875,29.280979726706946,-15.822580219106982,-18.673964062131517,0.36860779575032393,13.55132343980612,11.016388941576896,-28.154350818521532,6.103747694242059,-11.751201422747183,17.757694839374647,-13.319179497211834,-32.64435631082785,11.196455438215718,17.459319004222774,0,Neutral,0.973
0.390625,29.844750796994315,-7.293733274023169,-9.86048188401102,2.9147988835588476,17.854219755613226,6.297899373410206,-31.180666917778787,3.743297402780958,-20.379119949856022,11.568614001806743,-17.894241345825606,-37.93281991744664,10.554084006902308,18.195413536556753,0,Neutral,0.973
0.39453125,29.7615845480086,0.5052437576621773,-0.41169404007603444,1.7370091148051774,17.735933358211586,-0.9578508711290228,-29.641344306521574,6.160312719531462,-28.492339376486626,8.425659541809239,-21.354012968268904,-37.62738941885031,12.295086216648302,17.06842464741268,0,Neutral,0.973
0.3984375,26.709701956017394,4.676638338883737,6.474686158996912,-3.1148708729402608,15.910844683622907,-10.709373574145353,-23.49080876701564,10.840671627134995,-33.24659256989379,7.966467001079288,-21.739686029417804,-29.217208718613193,14.820593609345536,13.53475082014641,0,Neutral,0.973
0.40234375,18.99380202348783,3.997839886372976,9.124017543154151,-9.881378768715814,15.277331867235606,-21.512508063774643,-15.036776336336885,13.790149354455693,-32.68083604374128,8.633164371803995,-18.49801767431859,-14.368182520365558,14.906823243503268,9.965218247672158,0,Neutral,0.973
0.40625,7.522692485143597,-0.5757535900633979,8.399329123254159,-15.742199081426865,16.901410443314404,-30.33493952616492,-8.072182394260746,12.021580757604871,-27.26878289456584,8.426376717769214,-12.793416067548884,1.1939110864270956,10.295226935505745,8.54535591045396,0,Neutral,0.973
0.41015625,-4.106755362001456,-6.31378770852046,7.015387101392548,-18.26429908736669,19.508673551219932,-33.81534643850368,-5.823667254897102,5.375953618744567,-19.758781546248315,5.9842396789723535,-7.012111893964135,11.305930056604115,1.37495595674158,8.501074458936154,0,Neutral,0.973
0.4140625,-11.989553301827453,-9.799042125485222,7.4714286632512525,-16.83497377354502,20.843532323402588,-30.37687552658828,-8.741440883040166,-3.564004925049761,-13.413834745432823,1.2845822477651587,-3.2381086659719434,13.666590486146315,-9.198795554093165,6.401066099679254,0,Neutral,0.973
0.41796875,-14.812036674331749,-8.264499965178903,10.192915152186984,-12.85164729252853,19.590122920594844,-21.411923515739062,-13.789512063164812,-11.392838781596371,-9.929385340736316,-4.602906222046453,-1.6246719467000257,11.053088849995087,-18.46121781988018,-0.8838118338955786,0,Neutral,0.973
0.421875,-14.60503296676746,-0.8388691922290217,13.485114922507021,-8.337192291539251,16.31164747754201,-10.49947411425707,-16.199584642139925,-16.289938548393206,-8.501896647859498,-10.42402694750539,-0.17759889396856318,8.512597323430342,-24.9930424878437,-13.338706625086798,0,Neutral,0.973
0.42578125,-14.692999327113952,10.835719274774146,15.399498710260076,-4.236260476369186,12.936398367972641,-1.4872755828292552,-12.660603690504743,-19.110854152190278,-6.7384687486103525,-15.570150430853849,3.6632200568276723,9.216882785250716,-29.329735670214024,-27.318347230551463,0,Neutral,0.973
0.4296875,-16.74596353420038,23.206862118246274,15.817612820742765,0.02465642118943412,11.387291385123632,3.218634711123166,-3.497019461126206,-22.274991375521683,-2.7874342697064964,-20.393334496020874,10.91695199197376,12.611839796967171,-32.909274316822035,-37.48984624380551,0,Neutral,0.973
0.43359375,-19.502031778748492,32.4310796859802,16.6873686177472,5.561633380171653,12.283657279578264,3.619011464377941,7.831289671479332,-27.348339729501287,2.9258296416772316,-25.818957572973634,20.08632758658072,16.025584555497915,-36.486805910370336,-39.80668372327215,0,Neutral,0.973
0.4375,-20.17806880528692,35.90224814399544,20.03320278904401,12.835628330762141,14.443101743145258,2.069438083759956,17.326286127035676,-33.32484925480676,7.838821573410931,-32.17645769364921,27.90416544405675,17.578265657234887,-39.091287549829055,-33.889449249009076,0,Neutral,0.973
0.44140625,-17.288906045796292,32.873231071048345,25.59736452660264,21.228474140300676,15.512916213907827,1.8441350069143136,23.03894652430289,-36.9999042264747,9.360321307789558,-37.92191756340318,31.17820288470108,17.491721796126903,-38.34969724463809,-23.49449034676091,0,Neutral,0.973
0.4453125,-12.395201114302573,24.452890514634493,30.437816105859934,29.325173168233786,13.418533089278261,4.882264137336298,25.81923790667172,-35.13476415179282,7.295314140364371,-39.78090617575059,28.63753219918879,17.163259996194153,-32.243397559521796,-14.464586698288635,0,Neutral,0.973
0.44921875,-9.169608646324653,13.450136866936832,30.98480941960312,35.324690062361796,7.680601158365971,10.511533166405746,27.852261441821604,-26.797793830423547,4.393753188386855,-34.93740854343452,21.713040113832157,17.58817855648379,-21.08969567398623,-11.070138307684505,0,Neutral,0.973
0.453125,-10.45411410393625,3.636278633327861,25.776715892014114,37.42985169134898,-0.2672774883711665,16.410393293136526,30.24137365012122,-14.189222367257615,4.324572111252913,-23.568229911110734,13.618882242165263,18.56758744572381,-7.972057354309821,-13.239846848601822,0,Neutral,0.973
0.45703125,-15.78690754388367,-2.050330854468527,16.51747266458268,34.53606431976735,-7.892621217908698,20.85930725010988,31.74347269945691,-1.3881897607453155,8.71404902775561,-9.325457274347148,7.2030481651756535,18.77219405678129,3.030571640496664,-16.979219998446574,0,Neutral,0.973
0.4609375,-21.549325048448342,-3.3269570674626703,6.630165119970695,27.128868462489173,-13.004234922315895,23.959251806493782,29.827891469684474,7.937160201776896,15.7496851687827,2.609467114021537,3.1196121634033247,16.265765857483444,9.562725521135338,-17.76373997251759,0,Neutral,0.973
0.46484375,-23.630360652150443,-2.5715376027720183,-1.3657253374511016,17.53932867634105,-14.95002560503574,26.656671842451477,23.089275576134735,12.129150169361099,21.402977482562626,8.262083459723033,-0.258335429184435,9.501729663066643,12.514955267669064,-14.018987213464085,0,Neutral,0.973
0.46875,-20.409510292969614,-2.7914619141044015,-7.4576860133919745,8.930588040733971,-14.707954529759837,28.796704931617963,12.906139753851457,11.696340653675394,22.173107817521633,6.792957618459355,-5.127224450015842,-1.2968514486916498,15.006754300007971,-7.685160023282046,0,Neutral,0.973
0.47265625,-13.72525015054654,-5.522055101388975,-13.577079434281421,3.589273105782165,-13.809170620196587,28.388488002518574,3.0756836728743506,8.65603879420624,17.323121552920313,0.9004342366518615,-12.092000657486249,-13.334463528852039,19.38755491622845,-1.6317407514946092,0,Neutral,0.973
0.4765625,-7.173709894015289,-10.428028688836536,-21.51631646043082,1.7864317800832517,-13.057496549244473,22.972854976410872,-2.3345248031053605,5.7946033722665,9.185806553994329,-4.542349000856047,-19.25460778441145,-22.25000983798795,24.65101991793114,3.325401934219287,0,Neutral,0.973
0.48046875,-3.124221571370381,-16.25530406540883,-30.937797635423756,1.9220449151523018,-12.02749087383047,11.95386395131639,-1.674670747106061,5.790353272777315,1.4847770654394044,-5.16769708382348,-23.278433267870227,-24.74298060466263,26.825201669781578,8.863851316474458,0,Neutral,0.973
0.484375,-0.844654136550446,-21.73161130735805,-38.91035240527838,1.7107328120848118,-9.488261044404755,-2.1275283273498875,2.8364765406351182,10.014514735955325,-3.143731294833083,0.43791099260514244,-21.621429000567613,-20.730445828445173,22.432583643263403,16.81248565380171,0,Neutral,0.973
0.48828125,2.6850490150797652,-25.93898176098765,-41.53917940559688,-0.3841116485368275,-4.3077518365194125,-14.518397521881807,6.351055766920091,17.547925994690516,-4.782539942116856,10.264393592558415,-14.315122419263357,-13.125422998059662,11.916696676779111,26.48360769240042,0,Neutral,0.973
0.4921875,9.93429669964363,-28.5514243250747,-36.82651616395697,-4.353758719185449,3.6854531391563765,-20.790222183188888,4.820887122929058,25.441015021709127,-5.852305184123951,20.60548398635865,-4.127106153904769,-5.67853131493727,-0.2861220323985576,34.260176980163656,0,Neutral,0.973
0.49609375,20.439525604719254,-29.953659198823015,-26.565541585212095,-8.968595515940729,13.317049656351516,-19.35934340133823,-2.1545195545856655,30.55337267764405,-8.843921370259089,28.32230462004003,4.940898934786663,-0.8939181824892755,-9.0277771839517,35.92426869850608,0,Neutral,0.973
0.5,30.92497998820452,-30.798731226216308,-15.402464725796225,-12.87723403763183,22.4029979106805,-12.52200415092057,-11.519817119919548,31.714230782087295,-13.87124053715339,31.958099766670234,9.939811610100957,0.7342827919238137,-12.042560598538095,30.00915759586396,0,Neutral,0.973
0.50390625,37.67083183320714,-31.09179236941283,-7.566316049031277,-15.545942705112436,28.66940970465058,-5.242214473346111,-19.448879183319328,30.28218454348833,-18.197243470089177,31.636230830144026,10.689311022163507,0.2840029128909092,-11.06253655071979,19.55668404897942,0,Neutral,0.973
0.5078125,39.059009264152245,-29.688946385420127,-3.986298084486509,-17.382809861085228,30.71967968373118,-2.013040113809885,-23.83220219715016,28.630957632416276,-18.256145773984862,28.52726509285439,9.661923580653696,-0.6155378532501556,-9.99101679473081,10.537684809298796,0,Neutral,0.973
0.51171875,36.4074094590119,-24.929009979627697,-2.2114142275487736,-19.21422672884398,28.48453820515746,-3.7291658603316753,-24.805087784518896,28.020744413849332,-12.42007673010765,24.13920601315201,9.858553413416626,-0.7311242885375707,-11.665282513759394,7.729641897997021,0,Neutral,0.973
0.515625,32.65542738072985,-16.009429738769647,0.9375488743299332,-21.684230193766812,23.014468849014794,-7.26805363758104,-23.680792677991356,27.574586776668937,-2.220444763589844,19.463121056832154,12.2793728953179,0.3436632586088651,-15.582434177084103,11.294116920974705,0,Neutral,0.973
0.51953125,29.939048728848142,-3.9676417922001925,6.295071632195184,-24.86166446280848,15.880730256269615,-8.523426395625512,-21.54838174697475,24.902355617457236,8.753718134668995,14.509090865090295,15.23933110491986,2.2323057686084518,-18.342790520929352,16.97767924576781,0,Neutral,0.973
0.5234375,27.954489061449436,8.458078246769237,11.456165054594074,-28.0698834683082,8.48874771121678,-6.172789440563321,-18.44931022524695,17.794185999845567,17.24353771680292,8.699729807465122,16.053443938604712,4.143171439761778,-16.4585901849441,19.62035326852798,0,Neutral,0.973
0.52734375,24.52322411689107,17.94181019649748,12.932257323251928,-30.0034829907224,1.5300369886165255,-2.4031204382914666,-13.484942249536715,5.944996728378712,22.239722662556954,1.7988645584537881,13.318138132081991,5.580130868100869,-9.233730365838689,16.78791239481232,0,Neutral,0.973
0.53125,17.82120316620492,22.069975300484174,9.590287815640833,-29.1622471931983,-5.145300937646761,0.08277127563117867,-5.822899090462289,-8.318213834813028,25.117567456724913,-5.368317482545707,7.847006285561013,6.987871597061604,0.5060131543715273,9.706495251451187,0,Neutral,0.973
0.53515625,8.190248521591291,20.516608331681052,4.204733405967407,-24.458625693662764,-12.062258187811214,1.3597776744488437,3.8829822526073015,-20.908598040471812,27.897112133296545,-10.92111518037555,2.0138617630385975,9.438952248260504,8.321132377815266,1.4166418707347468,0,Neutral,0.973
0.5390625,-1.9136673291186665,15.250015291967069,1.4970856607124834,-15.779160879110737,-19.333255217180543,4.109734312701331,12.817878464004679,-28.09831401938942,31.009065758300014,-12.784519583444396,-1.6026120425665646,13.263357451253937,11.33103871718452,-5.7740974186755585,0,Neutral,0.973
0.54296875,-9.524942255388204,9.658023563579535,4.294628548749447,-4.285262393661901,-26.11125505957111,10.217212012498631,17.24667913891731,-28.52733853075506,32.50545218047137,-10.067267771659171,-1.5458771860281668,16.959211190476932,10.267153118319275,-11.457082146206613,0,Neutral,0.973
0.546875,-13.110496686755193,7.096210792207545,11.142631497905073,7.717838425367993,-30.68251082680658,18.00345460778086,15.228126526283898,-23.77799226449339,29.50749875215258,-4.097072167949316,1.6540361177679823,17.736249414173933,8.636895344022083,-16.334676554190676,0,Neutral,0.973
0.55078125,-13.629607031638999,9.48485133295985,17.38884618031405,17.437898052506775,-31.305322512184237,23.05557409814975,8.45210475018637,-17.368337626229106,20.727804911550198,1.7721436299076192,5.5698629792393675,13.388081587942118,9.61186041355351,-20.51414544663772,0,Neutral,0.973
0.5546875,-13.83338559358425,16.407164800343033,18.87849206812053,22.7086159926094,-27.506249538601747,21.657249965883167,1.2593189626400934,-12.973854827808381,7.9324779017918186,3.73116226637087,7.1524758828227775,3.927564169988872,13.462322972809424,-22.604094589673362,0,Neutral,0.973
0.55859375,-15.98787696932352,25.038597888962656,15.222701606263135,23.074340641456168,-20.89552424497615,13.482422443543435,-2.388281805880422,-12.716155379262108,-4.907951815501291,-0.3215083476659162,4.62780053950212,-8.142442792690607,17.794118607446617,-20.660338077286,0,Neutral,0.973
0.5625,-19.751477587499462,31.12725759612473,9.805236660275575,20.02848280235129,-14.446176064917816,1.4441500672115528,-1.3017060597227512,-16.201387067641402,-14.081670001621468,-9.320528127609114,-1.251570460641541,-18.91270118588326,19.957996117496993,-14.328155006838065,0,Neutral,0.973
0.56640625,-22.299579605211242,30.941092443639022,6.49140861176023,16.03132915920871,-10.448691365628362,-10.548421095124544,2.8789451699685396,-20.882369171936844,-18.270402133625428,-19.35536299755237,-7.670977146371509,-24.8972602723901,19.16060985634685,-6.163747297570514,0,Neutral,0.973
0.5703125,-20.964087976954513,23.363144784365282,6.081589638677273,12.941272525007111,-8.910962065291033,-19.71072733434926,7.297086917131523,-23.677763616513,-18.89613407261792,-25.766469922557008,-11.778700329444778,-24.79497473371421,16.6911494890129,-0.5367857811449165,0,Neutral,0.973
0.57421875,-16.125451598079295,10.65006174429674,5.730650204688897,11.018512327057037,-7.909964714086619,-25.1034428362292,9.525036265353927,-22.880738104194773,-18.698076544778885,-25.654008067089862,-12.828964847432346,-20.187863996811963,14.590588106059055,-0.5939541064234167,0,Neutral,0.973
0.578125,-11.522752346081258,-2.9584524537989183,1.669181116410464,9.21656427354102,-5.401824536473874,-27.24568770309623,8.438925975046377,-19.13703508347856,-19.688516601657717,-19.140901077145717,-12.75695028087571,-14.501949763020209,14.068560853411789,-5.68033931051646,0,Neutral,0.973
0.58203125,-11.39155301888906,-13.667556659570645,-7.270076072317033,6.465633960841369,-0.7570206483456663,-27.302387467285307,4.362160746733701,-14.80688308248633,-21.815761833405816,-8.871113093690694,-14.53412500980054,-10.729973694466066,14.75662160008885,-11.509355104774839,0,Neutral,0.973
0.5859375,-16.822202813772755,-19.559123605221274,-18.172680506122955,2.8266966025003466,4.927923230345529,-26.206707647612042,-1.4423686422308135,-11.983604033579045,-23.051057078813137,1.530316653093164,-19.448496225996227,-9.599468003948655,15.095236015029464,-13.143012684711522,0,Neutral,0.973
0.58984375,-24.553408114589228,-20.416807117766822,-25.753586534141704,-0.47731727255247075,9.515316439715534,-24.132115110674484,-7.739961282966366,-10.556875902671,-20.81460935889297,9.087569816737288,-25.62226170065715,-9.685062390022125,13.443927529794399,-8.460945902336665,0,Neutral,0.973
0.59375,-29.29293420216221,-17.13770838865678,-26.096458921458236,-2.043686681141711,11.127384358186674,-20.757095508345703,-14.072847413339163,-8.083604145474725,-14.043553045102847,12.616164647981096,-29.134921461689864,-9.192107853575,9.174349474155145,0.5838061523530276,0,Neutral,0.973
0.59765625,-27.562175017025382,-11.631994060932616,-19.569641914070296,-1.2785311767056855,9.621938213762252,-16.12889020217951,-20.61041602124124,-1.849536445728529,-4.592797366684746,13.007815028240978,-26.784393341067553,-7.517185876973475,3.0524982792812096,9.753555517428474,0,Neutral,0.973
0.6015625,-19.880683723514196,-6.556552173759522,-10.396507134380892,1.299952773852613,7.176272839604316,-11.27761118867408,-27.197615519135184,8.610332693166702,3.466370180992432,12.429523187389856,-18.268850322839878,-5.201042688008518,-3.285119572143314,15.716022913598525,0,Neutral,0.973
0.60546875,-9.868993857940815,-4.078380099941012,-3.1100380145585698,4.288579214455531,7.037100544585909,-7.873941791530371,-32.4797682395796,20.732058891002254,6.618724013182856,12.677070931783568,-6.312880126384921,-2.885699655537411,-8.314696716196257,17.970533973165892,0,Neutral,0.973
0.609375,-1.4821710223933668,-4.406312031501784,0.9723370185919059,5.865955463395219,11.066212974523323,-6.959826837094302,-34.08293786795223,30.428303090278213,4.553386916585419,13.700814742108202,5.194356040490744,-0.6787143892550562,-11.495801067312495,18.159041631147556,0,Neutral,0.973
0.61328125,3.4983078136530406,-5.727815962092129,4.104615760177607,4.524570198394971,18.122600425434978,-7.599904830700816,-30.114391740806802,34.528992267328995,0.306448286853779,13.664292423820456,13.68614507856054,1.7964312359713752,-13.659854156773433,17.818234853925563,0,Neutral,0.973
0.6171875,6.335397743125464,-5.930799361491578,9.211093327746159,-0.11046418758021859,24.75681203423375,-6.799560802254258,-21.046217369853107,32.368439524816225,-2.1952779628113954,10.826930228674339,19.191671267104436,5.292211794426921,-16.487572975494576,16.812432394651715,0,Neutral,0.973
0.62109375,10.151265280127456,-4.45630033016283,16.679686736231833,-6.933091605379128,27.600024548167116,-1.4175032517645638,-10.284534077149992,25.748057039499667,-1.054487591068384,5.596288925942244,23.521720677741513,10.828722644539718,-20.920203188500388,13.74545885478348,0,Neutral,0.973
0.625,17.26272849255405,-2.3904100629307923,23.81188105287331,-13.768133718029627,25.442133454567593,9.100392362558573,-2.413181855770708,17.75091525514417,2.46435469805219,0.6046360520104245,28.309398334706692,18.993502635048127,-25.621933687584896,7.7855599133770195,0,Neutral,0.973
0.62890625,26.84567146814844,-0.8702302343994877,27.11933634454857,-18.306121384496535,19.587666223790237,21.621802367943964,-0.08732944003841249,11.284458221403563,5.2597452307302355,-1.3270879372212525,33.60564663745727,28.729295647011934,-27.389051102473942,0.1879344079919041,0,Neutral,0.973
0.6328125,35.008996392863835,0.3243817925251339,25.092833497660344,-19.14331177408513,12.657229218649643,31.052182826178512,-2.1187524328081127,7.944995595640875,5.023576398520092,0.7026534166336392,37.83389832270591,36.83067442963832,-23.758429422371766,-5.916333026348342,0,Neutral,0.973
0.63671875,37.56611433133053,2.5131757608301077,19.121424366238305,-16.40622927822393,6.931658606291554,33.482002477899435,-4.557322613502704,7.576069675166722,2.0845504845713423,5.225442471571,38.81119571163638,39.266693457119565,-15.399431876460604,-7.510230071202694,0,Neutral,0.973
0.640625,33.298498990290426,6.620185578128617,12.317895328418873,-11.403066150822097,3.1826112329751646,28.37197378800828,-3.838855036879678,8.68867556811888,-1.0203935741461205,9.366243179714107,35.14216058184728,33.84529843843011,-5.716458277325316,-4.0484061430632625,0,Neutral,0.973
0.64453125,24.93455742642096,12.11512757467965,7.591951438735854,-5.430860012613912,0.4108513253953391,18.570635843842123,0.8111695912672628,9.41527982880644,-1.8388798518760243,10.09017116243566,27.164960433162424,22.15459575612831,2.0096025346886175,1.6742428237078675,0,Neutral,0.973
0.6484375,16.98607017137872,17.39444895140879,6.192161508193281,1.0911972390759401,-3.3592003181866756,8.473276372119358,7.510542971970958,8.415676286978364,-0.19848082955745397,5.342743974587782,16.827224389029507,8.94272981028693,7.077001323407866,5.028598948198474,0,Neutral,0.973
0.65234375,12.186263309874443,20.924670399105494,7.211422322612807,8.205645639453428,-9.443347599005962,1.4686559947766478,13.754713750995522,5.476066317491618,1.4507480584603993,-4.781030704965227,6.692160090469696,-0.7872842998072166,11.189009447632294,2.56448003175413,0,Neutral,0.973
0.65625,9.524327640572084,21.831638797446477,8.24639599723273,15.407452860078429,-17.05024057965932,-1.7845393464491726,18.44673393814794,1.6651315141400262,-0.2244256249099499,-17.382422622317428,-1.146640683240896,-4.72953967677231,16.13694694640488,-5.575190686588737,0,Neutral,0.973
0.66015625,5.658911872431331,19.62685141433607,7.051017328797605,21.55099217974659,-23.370408499833623,-3.074326528466664,22.38342437595601,-1.3419393748602848,-6.870362149890302,-27.726957745502666,-5.823524602033378,-4.156550339773039,21.623272426708027,-15.66754307309927,0,Neutral,0.973
0.6640625,-1.5128273483983998,13.888452635897687,3.223663608317945,25.802676478716368,-25.373635231520716,-4.595959321103153,26.933162261541547,-2.6898509783224305,-16.895190124926227,-31.850745521531763,-8.05380872404786,-2.458999425155518,25.08405113227257,-22.922256299283415,0,Neutral,0.973
0.66796875,-10.43117181130941,4.6339840697014925,-1.4685283428925346,28.187240008938044,-21.84047798071125,-6.8385653125963834,32.1150153819896,-3.3335188437571883,-26.15155234824413,-28.917521158426055,-9.712598894293453,-2.7433026113435206,23.593471677329603,-24.562496815325858,0,Neutral,0.973
0.671875,-16.870122216480713,-6.793590037434373,-4.6877190407719915,28.88310132345926,-13.982883771852823,-8.226025209683627,35.8667842872377,-5.4224855791995425,-30.46444880047905,-21.2789576417749,-12.479629976910141,-6.137687320532453,16.255667631869194,-21.06741848705987,0,Neutral,0.973
0.67578125,-17.472623521541596,-17.30524341056565,-5.873179682657601,27.2732450770957,-4.4621022580924805,-6.976510206096767,35.27023921311962,-10.42760765783842,-28.244358583057238,-12.432784463055476,-16.454254857972643,-11.60117108744951,5.125552462790558,-14.87829037413163,0,Neutral,0.973
0.6796875,-12.646930488488087,-23.12905265692978,-7.1444100971392706,22.19274379965518,4.113099755288287,-3.529425340959379,28.773947241179265,-17.61542408523199,-21.342021715792104,-5.021452248563634,-20.01732599689912,-17.06013689878585,-6.0603159730580005,-8.16972412380731,0,Neutral,0.973
0.68359375,-6.264076802659295,-22.21318028339037,-11.614199650750997,13.353170504606005,10.253212740553877,-0.8641271948971392,17.629603620738404,-24.173982335700533,-13.45106386443636,-0.2612261842597599,-21.163613925587164,-21.05127687086076,-14.36525160097599,-1.8136429506405076,0,Neutral,0.973
0.6875,-2.5220641466953926,-16.10911650334279,-20.43421203195627,2.4836311062716616,13.99069388199726,-1.8464656335690992,5.453926934438289,-26.881704836656507,-7.1315306803731735,1.8225966861985379,-19.198761997623542,-23.70388504217597,-19.520881889935286,3.9612548332852326,0,Neutral,0.973
0.69140625,-2.8511071275377207,-9.305298159790848,-31.293848516156174,-7.122034785223791,16.587762559807963,-6.066301617133463,-3.726162354389447,-24.008267528091327,-1.867577353050827,2.2998438222515065,-15.368791883778256,-26.233372171664676,-23.681984459511483,8.507315725973184,0,Neutral,0.973
0.6953125,-5.47364239045681,-6.239809160301703,-39.80575618487467,-12.523950687964419,19.527697252905718,-9.554458118633411,-7.625099081392353,-16.16376604615153,5.012295539822233,3.017543719101428,-11.989963240234891,-29.336849641482857,-29.03556192681842,10.669041143780262,0,Neutral,0.973
0.69921875,-7.555962372569732,-8.558860858156917,-42.52479658770851,-13.049948676527114,23.227596853485082,-7.858020247439045,-6.807847129975621,-5.820310423753973,15.30268669812464,5.39833469021611,-10.986371930345689,-31.943326971337317,-35.2364348896657,9.706418031667946,0,Neutral,0.973
0.703125,-7.619367335776711,-14.79826255814086,-39.02079845030815,-10.634569077165592,26.324066514957472,0.44735553229135094,-4.1919032826669325,3.9519902047355915,27.60770841949588,9.154307858926533,-12.905606119926059,-31.505090638649442,-39.19914559140011,6.2649337593130685,0,Neutral,0.973
0.70703125,-6.256731878353404,-22.055562707170992,-31.574877467998867,-8.341350506924782,26.156819166046507,12.8208119851252,-3.1352802203368313,10.822477262071706,37.85265589749092,12.527317156163816,-16.620195099687983,-25.71114347343234,-37.63222830491641,2.6001849815210307,0,Neutral,0.973
0.7109375,-5.209556166692457,-27.560333387307377,-23.173692024874896,-8.415795498217808,20.44194210527467,24.644693928792876,-5.226181563526379,13.959857237024153,42.031888194738634,14.145976714626288,-19.587835380138195,-14.356718884787016,-29.889327400285378,1.8279796992980835,0,Neutral,0.973
0.71484375,-5.945281500058375,-29.109061201702033,-15.505206558189979,-11.355793476762019,9.295490104783005,31.98097947656437,-9.4880428860373,13.873687397939108,38.778804232825834,14.584902589700274,-18.905972243279184,0.054638929172451056,-18.481138578147466,6.296027848530861,0,Neutral,0.973
0.71875,-8.565076399440688,-25.215957756154346,-8.263937887249027,-16.161403538506644,-4.00552140689203,33.318694317345596,-13.72329896445111,11.715455277355925,29.942106939938395,15.941491657840016,-13.100135535960268,13.446978787224893,-7.119311604905153,15.766053659478464,0,Neutral,0.973
0.72265625,-11.458106534450373,-15.797442675670883,-0.08667102650919636,-21.051954612104016,-14.696348907924307,29.652910638551297,-16.59440422509415,8.769318126498998,19.240974994589163,19.921431169825958,-3.451391814992929,22.1971897787278,1.6197154768287314,26.846386579569074,0,Neutral,0.973
0.7265625,-12.025813533439859,-2.7570458479617095,9.601917135619543,-24.32621662802542,-19.67689006619443,23.233122379607707,-18.36690081688708,6.250607035881531,10.157190339309423,26.303193573415104,6.5912276317619,24.744173870794917,7.255744304941513,34.62123143933412,0,Neutral,0.973
0.73046875,-8.408760234604339,10.497243964993807,19.30820065782862,-25.308632183163287,-19.488231133698154,15.941204820862575,-19.943612578677502,4.933407406492946,4.125909251981776,32.846810795913804,13.795320651225092,22.091287321901373,10.96508041899105,35.550079315248055,0,Neutral,0.973
0.734375,-1.1894582493942911,20.50914005640763,26.01318358538699,-24.797455315727824,-17.46075595793211,8.437857929027459,-21.535629633805485,4.623879691375686,-0.07699769070734377,36.28925184127092,17.37493951306632,17.179562344028806,14.483577730058265,29.49288002803288,0,Neutral,0.973
0.73828125,6.576060854500517,25.3669089849015,27.367955066629936,-24.364134192011523,-16.981752608374897,0.5913192392851555,-22.115322862684078,4.286209080575368,-5.070996158843559,33.821783970746345,19.141342346775666,13.390639569083872,18.766627204022743,19.447319837312797,0,Neutral,0.973
0.7421875,11.554679712546054,25.592404396240163,23.774923234713327,-24.88500855055586,-19.13970051659153,-7.3788591677226165,-19.801362251544575,3.1816975863617767,-12.258629344251952,24.706010556131023,21.55789822353408,12.797745436987533,22.949738884471714,9.371777162297132,0,Neutral,0.973
0.74609375,12.829391807430364,23.67748885767748,18.43115865425345,-25.600335275230364,-22.275674047306964,-14.175649978459452,-13.02707547356901,1.9705172981126242,-19.917238256085998,11.185256723286171,25.4772202330306,15.120625892201646,24.684501761394667,1.8236111619148156,0,Neutral,0.973
0.75,12.525740012506377,22.33997807052521,15.046210263307891,-24.576888149222086,-23.50899699768434,-17.8775261927598,-2.12872825110085,2.3316444668499656,-23.968887467244084,-2.4004098918178176,29.331686406708023,18.09265710503638,22.136878727202355,-2.896029993431351,0,Neutral,0.973
0.75390625,13.680087765480259,22.723420382585058,14.981122747319603,-20.079224923554367,-21.086221955335482,-17.39184305009308,9.812949777928816,5.166302252451406,-21.24802934141141,-12.018611820499032,30.158036041889243,19.136274233266917,16.001341628325918,-5.819295770055093,0,Neutral,0.973
0.7578125,17.246268358815918,23.9761631505515,16.2307784884581,-11.596587045152102,-15.829449976287043,-13.835259936142672,18.164914273961642,9.170065998057828,-12.56930637881702,-16.04121559438707,25.622602032390827,17.268510258763804,9.397609955673598,-7.833996682608087,0,Neutral,0.973
0.76171875,20.902502915627537,24.44986226438862,15.322672064111671,0.01990265682160619,-10.523267792272188,-10.539845408825553,19.636290668452453,11.356339011089077,-2.5628419795585673,-15.591728148983348,15.765908999064763,13.69248678709607,5.522029889884402,-9.071988701964727,0,Neutral,0.973
0.765625,20.79106566725231,23.360482048885473,10.672080343235816,12.834220289027757,-7.7479714783285685,-11.19102349249574,14.678839023436007,9.154589488435388,3.913499698982376,-13.337723998012015,3.2823478590790405,10.446057703184081,5.180780972917074,-9.52466298529088,0,Neutral,0.973
0.76953125,14.833302720559502,21.384522373657273,4.325539763194391,24.1712297831792,-8.060063192724414,-17.095001851772405,7.305292328080286,2.1661841151773733,5.489566624109179,-11.843547537777791,-8.00680877860992,8.321778169982151,6.413683983228763,-10.0441325355647,0,Neutral,0.973
0.7734375,4.765880921499367,19.676200205090637,0.25299754766105775,31.389962231777382,-9.958813180228889,-25.64076421845695,2.3272402630992053,-7.806163780088444,4.673694258801979,-12.471473739413037,-15.384553283654906,6.041068119810021,6.435156264413926,-12.514163923040307,0,Neutral,0.973
0.77734375,-5.003270224956712,18.394127001746686,0.6803169035261085,33.15884802054904,-11.24002254877409,-31.52449957615798,2.0949660173810947,-17.968488291074905,4.954858656653896,-15.268727275253955,-18.45051074078182,1.4276880590818577,4.043892732964416,-18.63164389818823,0,Neutral,0.973
0.78125,-10.769544082632619,16.320907124947066,3.978818465970072,30.253486684319796,-10.285722185342559,-30.20691654498146,5.1710588377975215,-25.622886776929445,7.738207630659927,-19.547616305324976,-18.672378367892524,-6.531334143929115,0.38671853964149805,-28.002324531264502,0,Neutral,0.973
0.78515625,-12.149964100481546,11.925260084042407,6.059740254863135,24.932174402117088,-6.496559000283486,-21.04159813216205,7.868082353497215,-28.75550086537312,11.715133313686081,-24.387747138526837,-18.049416870638186,-16.48494224541569,-2.320538458504673,-37.2886316292696,0,Neutral,0.973
0.7890625,-11.797220215021767,4.726969959572959,3.804663023208449,19.45282583749339,-0.20485343528750022,-7.62733758687358,7.3882980185736455,-26.686053496189313,14.433940309475002,-28.684339729375953,-17.858185700562874,-25.195000521918452,-2.702476730737694,-41.7612963489407,0,Neutral,0.973
0.79296875,-12.721940319977243,-4.320472807790875,-2.6031717740148443,15.149009202054804,7.3995295709957,4.784192745056886,3.9800712758617274,-20.634050781251847,14.156875202701414,-31.206689840921907,-17.962380399148,-29.200352094196482,-1.2043683551332678,-38.46709190434045,0,Neutral,0.973
0.796875,-15.6002298878797,-13.56473530309207,-10.173815182356453,12.418301740166958,14.476006452912163,12.741328011813382,0.2767932530521515,-13.208089823267208,10.79528147769141,-31.157000836402343,-16.98589235098516,-26.63632780388651,0.3453361180535248,-28.367922395414606,0,Neutral,0.973
0.80078125,-18.24342865529312,-21.520185035055885,-15.513435537947297,10.8386523110593,19.353922442331246,16.3333405497672,-1.505621710108725,-6.775272471822465,5.917781205371302,-28.766165042908796,-13.388574375954425,-18.319515240337843,0.12443923720583877,-15.645501713906183,0,Neutral,0.973
0.8046875,-17.623588919062794,-27.01023237921964,-16.96545313997803,9.216482639179436,21.681302094238934,17.975594094757394,-1.8493057188736992,-2.1613512357044957,1.937356121666749,-24.966132828717473,-6.815187413243964,-7.52869233423437,-2.28914627505276,-5.005621182586637,0,Neutral,0.973
0.80859375,-12.736910543838357,-28.880180655727244,-15.200262806902403,6.3029323436240325,22.69195645950131,19.36466288210385,-3.5690056614215,1.2308714262523854,0.5760834632411991,-20.167410793630538,1.2665612259014765,1.5248901747852108,-5.487863664477017,0.8186103863018199,0,Neutral,0.973
0.8125,-5.755800720522283,-26.196345013456277,-12.3463343225657,2.1313576264285423,23.918293957428006,19.52520841669792,-9.122376187702784,4.426787891168018,1.5230927919359925,-13.547193748938872,8.209965721552269,5.777665968828816,-7.115822177932669,1.993840942409945,0,Neutral,0.973
0.81640625,-0.391399407641639,-19.134394579318073,-10.268419135650397,-1.5287439429275276,25.444478899191346,16.019311584260816,-18.0111636293015,8.025836104482643,2.543787958008808,-4.0138687612127955,11.786991511236405,4.82124740423455,-5.477787462097001,0.9372274577973077,0,Neutral,0.973
0.8203125,0.9962485028051544,-9.692526020379939,-8.91348196563015,-2.634675292529119,25.564446049851313,8.100895645787569,-26.681297583031277,11.718419735077795,1.108342204728416,7.907367442721528,11.549694811546614,1.012636038804587,-0.7606812561638903,0.6940800361106453,0,Neutral,0.973
0.82421875,-1.0281444673304079,-1.2802933350362464,-6.129247490989249,-1.0387311306148583,22.273145648576886,-1.6144516989546802,-31.032807239494566,14.215330208547305,-3.8180867905561353,19.30503714166282,8.856994924077261,-2.0005717982208178,5.041791924697356,3.1053730725896385,0,Neutral,0.973
0.828125,-3.735358658556383,2.832269504004853,0.3897066260696096,0.9421736444631821,15.027925702511284,-8.784890231811852,-29.150351991966232,14.067262893754265,-11.203562026572238,26.259264945361235,5.769151779639393,-1.6410140323349336,9.544259011732539,7.819001467666793,0,Neutral,0.973
0.83203125,-4.294196424589453,1.2867555926191654,10.523357406533494,0.2851699780523026,5.0913272953743185,-10.607163251405275,-22.002980965339788,11.233443258179044,-18.792882116082925,26.356127031557854,3.920761653967029,1.9261384569271403,11.742271094586789,13.03838496890424,0,Neutral,0.973
0.8359375,-1.6510619148372851,-4.47494294918413,21.045133470121467,-4.291694344059706,-5.460303578642346,-7.7218800545741075,-12.286236643169538,7.894826153802946,-24.520160419783764,20.456123929567553,3.8872602823674476,6.20527160775337,12.774440711101555,17.49775124060689,0,Neutral,0.973
0.83984375,2.692420737563984,-10.790917341512754,27.647243608693973,-11.39251522268796,-14.680228767887955,-3.5055640782873856,-2.9618234919365314,7.20292988958097,-27.535280285389554,12.529560547397567,4.910376112659779,8.643670963055584,14.937921116554302,21.689926329284496,0,Neutral,0.973
0.84375,5.603908711556009,-13.57726394919072,27.872792674256033,-18.145992050378883,-20.997421324182874,-1.7208558830817984,3.7763623071600576,10.782891117129473,-28.37569960150577,7.62272379113511,5.261655752594047,8.862649400099484,19.52482610372848,26.917842247839907,0,Neutral,0.973
0.84765625,4.85780065893417,-10.393417924345036,22.528805551623634,-22.24206509365121,-23.445197678055205,-4.235209164020485,7.228219036116927,17.321196226634704,-28.243560442539398,9.058490705679503,3.589100227355604,8.857513257499875,25.208142000194492,33.0170141200629,0,Neutral,0.973
0.8515625,1.5135660168974785,-1.6872700886399323,14.767085409573824,-22.980770918316022,-22.28073597270349,-10.009697983870238,8.372783945685132,23.533536944789237,-27.739109877346106,16.486554455380855,0.37723448495787715,10.883749265430339,28.607692414890657,37.20355849266113,0,Neutral,0.973
0.85546875,-0.3761178828143621,9.418441196194912,7.858232688663894,-20.750008836270744,-19.112243853273608,-15.734726141445924,9.089464383135244,26.46500832397114,-25.97570799805567,26.085399950334832,-2.132160706882627,14.8690120521322,26.82821398716186,35.71244775113556,0,Neutral,0.973
0.859375,2.929948770095494,18.716486401040427,3.278417873689292,-15.977982581739635,-15.747656130335416,-17.77333767124565,10.802205456244195,25.050275509214675,-21.089599842832083,32.91435168152448,-1.914560912052737,17.7795065317172,19.721839419809665,27.140462456232907,0,Neutral,0.973
0.86328125,11.403613623595215,23.037296397293144,0.20505810403104047,-8.87801549958982,-12.625525691142045,-14.420672614283706,13.586592935949817,19.980872100400333,-12.032170385101606,33.78217075811405,0.7510482942507136,15.692380584183981,9.809094142184785,14.342198037202053,0,Neutral,0.973
0.8671875,20.93751560492722,21.60754172176008,-3.377677490558352,-0.07629631557256783,-8.497122609304046,-7.004339267249916,16.390257930298503,12.627597628880723,-0.10322882385804016,28.57095829535368,3.1864007295432115,6.916566968566771,0.16712495818279505,2.888200911521668,0,Neutral,0.973
0.87109375,26.51764490602585,15.82396904684672,-8.661042208275175,8.90658601853738,-1.8029080492330785,1.2417511148354101,18.211270140308866,4.227931782496365,11.350688833521255,19.413081994295204,2.3409369454525555,-6.3629608725111035,-7.606279606224861,-2.6438317345388365,0,Neutral,0.973
0.875,26.007831681278056,7.930800501880505,-14.563229941700806,16.101658057055058,7.545253461756689,7.871516821346357,19.40135345126002,-4.27716721447383,19.070119731412458,8.991167461563487,-2.867373319701712,-19.132260499943506,-13.799730066921486,-1.5340085104414083,0,Neutral,0.973
0.87890625,21.34579792326497,-0.1086038153915192,-18.30539242356937,20.180269867927095,17.566603179676143,13.09841825420817,21.796140860217985,-12.14486028262067,22.10783004038141,-0.5321965292670632,-10.71916520176573,-26.41421085242134,-19.565341278247445,2.979678844355636,0,Neutral,0.973
0.8828125,16.460708606250712,-6.929066404299825,-17.90628781887818,21.25986292779427,25.185525149848285,18.90481039751255,26.961769210437364,-18.81344950358392,22.170788099583028,-7.802493428222235,-17.803124379334573,-26.00886155809107,-25.631428989677627,6.062312986014894,0,Neutral,0.973
0.88671875,13.941082669093714,-11.737004701615907,-14.42962622639189,20.67678122911947,27.938958178950365,26.197450722656704,33.83791072026826,-23.944968016217025,21.7780516513122,-12.47963232623082,-21.18602315438233,-19.536327402167,-31.58637730698354,4.276543616098523,0,Neutral,0.973
0.890625,13.12737141661459,-14.393887297483818,-11.612764130891357,19.742989106396198,25.35878150668919,32.97545167473338,38.379267515811236,-27.413700423426963,21.913017384787008,-15.368743908773721,-20.212929249594637,-11.252659712093855,-35.85513589250456,-2.673763078543307,0,Neutral,0.973
0.89453125,10.885036865046969,-15.392482129766858,-12.84469400409609,18.455471276571437,19.310748551954553,35.46334191293311,36.24020351498567,-29.188540980969574,21.138487691979073,-17.797183933660026,-16.749995090983884,-5.316810827247025,-36.29900718824853,-12.245525646712927,0,Neutral,0.973
0.8984375,4.3012155082939385,-15.45893275471225,-18.139487043167417,15.412709217489134,12.933937380582893,31.184034196202376,26.371726197502888,-29.09709960582001,16.815983262012622,-20.34630743561971,-13.656389993659545,-3.2851619918622816,-31.468646089873765,-20.979781595310453,0,Neutral,0.973
0.90234375,-6.756931051552441,-15.023104327444102,-23.993792157253107,9.22880688939149,8.614117019925692,21.30274177100013,12.176115698954597,-26.71108066855238,7.555768434906715,-22.156584576143697,-12.58490051934595,-3.6303867529549487,-22.013163991367296,-26.75526466195044,0,Neutral,0.973
0.90625,-19.17514659651282,-14.038957578756273,-26.36443562479926,0.26996794064863344,6.468184213834782,10.369004868919857,-0.898752530114063,-21.79253668810261,-4.939298935625688,-21.65468898681812,-12.803503570561615,-3.493637474628752,-10.878535053760258,-29.70349607519068,0,Neutral,0.973
0.91015625,-28.610436806491318,-12.352290353730076,-23.963129049270105,-8.949449709211422,4.648715576517594,3.4755645998362006,-9.080180619328218,-15.170767696614972,-16.375440510796516,-18.12672438417516,-11.867887323398607,-1.0732757026451174,-1.4956284089817449,-31.005329749916637,0,Neutral,0.973
0.9140625,-32.44075868527864,-10.250663518751411,-18.857376314234905,-15.245083647974477,1.095370915417182,2.684667474669371,-12.110729158555468,-9.073378804043994,-22.67286646479591,-12.799299388600133,-7.433138896518171,3.197265619447869,4.654927892284561,-30.847553568323928,0,Neutral,0.973
0.91796875,-31.366484353319734,-8.540472291213906,-14.18629706936548,-16.9023179681983,-4.860087660673133,5.515084016492248,-12.20651230365274,-6.1436241777113905,-22.73341783829594,-8.536891820593114,1.219121108899188,7.316487206674684,8.717025759528493,-27.840292552161014,0,Neutral,0.973
0.921875,-28.46901437595551,-7.980942664644708,-11.371347670475203,-14.686289071052482,-12.077155801511816,7.006137307012179,-11.767317108000789,-7.6136734295000394,-18.702505135540594,-8.241820698854117,12.778534574202984,9.50216072026723,12.791412105758363,-20.65908332840776,0,Neutral,0.973
0.92578125,-26.525482136188987,-8.620146039962545,-9.111071252873375,-11.083725589146718,-18.26808913290836,3.703119308272253,-11.914109344900426,-12.065123024515325,-13.756537979339392,-12.858203431906219,24.49009187148737,9.726063705050567,17.62467142466186,-10.25577091874758,0,Neutral,0.973
0.9296875,-25.79080240184263,-9.547029427185192,-4.677355087435218,-8.685582165074523,-21.208446793245344,-3.92481848405705,-12.473667381064239,-15.961434013267619,-9.688073489487804,-20.230294710602177,33.21584198131249,9.884403947997388,21.653692265517645,-0.32232531944213383,0,Neutral,0.973
0.93359375,-24.124676022218488,-9.106419968716205,3.60776146353832,-9.038432270019227,-20.03408608442746,-12.440591830631044,-12.764881563280653,-15.76991012514502,-6.18504946913709,-25.81298146133198,36.69539573258875,12.440456787192296,22.120336371296304,4.777095617536869,0,Neutral,0.973
0.9375,-19.350358228649974,-5.529014275497219,14.67506358093111,-12.436428944208494,-16.068831724726866,-18.437636263308487,-12.472849652464166,-10.113913183884646,-1.7795151315002697,-25.198022725619964,34.728298594257396,18.407168230140073,17.392353430303114,3.192746634580878,0,Neutral,0.973
0.94140625,-11.717701335099248,2.105571653211883,25.27376723028996,-18.08951952477782,-12.456337401263246,-20.85358831749898,-12.20108614624762,-0.36817471014784764,4.651379608875351,-16.94028902322775,29.46566854412086,26.072527210948813,8.607904154166242,-2.6550668825515586,0,Neutral,0.973
0.9453125,-4.146737654636373,13.041191036712467,32.31893002779033,-24.155027047940152,-12.315578971843882,-20.893711719508588,-13.256798224879,10.500706169204433,12.754874265046174,-3.58630770500983,24.013554073109844,31.5429645572397,-0.8308408757894802,-7.403821371451218,0,Neutral,0.973
0.94921875,0.08788723025835868,24.79379868353027,34.83275118027463,-28.10323691712638,-16.4624976869218,-20.061183335863085,-16.458582257093937,19.689456013554935,20.465408493915966,9.925564871514073,20.040514068412737,30.963781926889816,-7.612864911375839,-6.415624424875525,0,Neutral,0.973
0.953125,0.11355305674103533,34.04373212010728,33.94410239561476,-28.012717001547685,-22.607378640448,-18.41365523432297,-20.69639671108337,25.72038700443802,24.965679535219646,19.21930943185563,16.553197155706997,22.95546585916347,-10.81151665614055,0.9478173167528853,0,Neutral,0.973
0.95703125,-1.8868978235881102,38.00583353501875,31.50892127532703,-24.00884354464496,-26.882481079461893,-14.694821191493672,-22.68845415022928,28.724028425857508,24.571031098541134,22.591761377516082,11.152649473681931,9.57230533805977,-12.227519850898156,11.04283261341936,0,Neutral,0.973
0.9609375,-2.5691073571810907,35.59981508490915,28.726676737144192,-18.23642297599771,-26.503337647337737,-7.920383316271414,-18.775373572315505,30.017084188040876,20.294023375410998,21.103193949193535,2.563990211909103,-4.789192313506283,-14.528618027038123,18.89398324725745,0,Neutral,0.973
0.96484375,-0.024375213402330786,27.93618277898621,25.400287084613183,-13.084049244047854,-21.50097895469694,1.248443431182514,-7.831248078538188,31.04952881740462,15.544150845839782,17.198839697002462,-7.960167745042598,-15.690568696190798,-18.744427739358184,21.862915111431008,0,Neutral,0.973
0.96875,5.0277273904149755,17.939396214810035,20.095876855366242,-9.241653050335504,-14.390950527675544,10.363381907076649,7.077353515225879,32.15291987893707,13.72456136019996,13.165816345996642,-17.427284032318255,-20.77452521976733,-23.130118973002777,20.965354109963258,0,Neutral,0.973
0.97265625,10.11276103046675,9.219463494579566,11.555074922920996,-5.292719243215596,-8.251245962782345,16.187137314555486,20.08492000729982,32.0785975554138,15.580538013134857,10.258418465564327,-23.08809628076841,-20.664644232848254,-24.337113588128133,19.02019733142246,0,Neutral,0.973
0.9765625,13.06418900140533,4.569918563129659,0.7750348031154752,0.9261821114174638,-4.628179638997966,16.334886518890293,26.19909360660472,28.857702239122524,18.719736124565326,8.57110046410835,-23.989972120076754,-18.216147764498896,-20.133487496316906,17.644000961533877,0,Neutral,0.973
0.98046875,13.74739877885164,4.704061136448919,-8.413949617676149,10.376409849663549,-2.542048144705696,10.892244241151612,24.344218140021333,21.399369252591427,19.736958442658658,7.405313881450004,-21.338677020704456,-16.53173602861827,-11.584863473302224,15.926877871367914,0,Neutral,0.973
0.984375,14.246739311329492,7.916409520355011,-11.897215200707741,21.776506316628453,0.8315042827057387,2.958935685101066,17.45264421812879,10.741201749209067,16.91089433458946,5.912272437674127,-17.765688753698655,-17.08880321132809,-2.6981161908730926,11.874325900016721,0,Neutral,0.973
0.98828125,17.289952581733317,10.99784521452231,-9.115115683015322,32.172444899460125,8.060804991164309,-2.83120881248907,9.876643792974855,0.06998034131124331,11.23363507649356,3.7901268932207084,-15.859007384554697,-19.338328709250902,2.484868203926339,5.038504698244676,0,Neutral,0.973
0.9921875,23.85526300126983,10.919341342989409,-4.035046867803222,38.593942306507934,19.19338443341527,-3.4001102191859696,4.4133571147535156,-6.8118502064438395,5.371437453444143,1.6327714692541782,-16.665188513043994,-21.78880781225185,2.983801912767103,-2.3015333753688734,0,Neutral,0.973
0.99609375,31.76121098893781,6.182359775912634,-1.7927084322896807,39.570778657096994,31.070590190295988,0.3353377404493365,1.1475995699308825,-7.839688584179132,1.6399297660614118,0.5555433924527472,-19.16501976175126,-23.26917967313559,1.4781560174866861,-6.598939078061318,0,Neutral,0.973
1.0,36.74747493048907,-2.876638212567923,-4.364834772823887,35.59256647964801,38.98041723992228,4.093511969253527,-1.4113487581577346,-4.165194432287125,0.2792047190518364,1.216219314513344,-21.092938231417442,-23.319193194819547,1.9073628802407863,-5.922950523950994,0,Neutral,0.973
1.00390625,35.616628225201815,-14.46803680655148,-9.46622068563202,28.538564078802434,39.57266377437131,3.818170475012462,-4.248463059270316,0.45016292039669414,-0.8737295519407562,2.8925117799262763,-20.422233515451204,-21.96764225104705,6.1605036064926315,-1.8313363106808322,0,Neutral,0.973
1.0078125,28.788165213099262,-25.770421196261985,-13.162047094430946,20.76261614464169,32.97511318458221,-0.9432522041858555,-6.732060156744951,1.8282073962470315,-4.736866723392954,3.3857440840017894,-16.58873845416354,-19.598777754702155,12.596606049821203,1.4293595975193887,0,Neutral,0.973
1.01171875,19.77352847289141,-33.59935750352267,-13.298848708083227,14.320023165682688,22.62771441195988,-7.1475488434702275,-7.395250401089678,-2.3602605409786133,-12.32304886209634,0.15660281242819987,-10.916425098197198,-16.7473180796791,17.513251439719323,-0.03824052137544359,0,Neutral,0.973
1.015625,12.057363971709197,-35.80270697739704,-10.861439133061644,10.33076878647175,12.961613257216769,-11.641160724594313,-5.7811427766255195,-11.422666795684892,-21.42517167930449,-7.715113326548079,-5.965592320981611,-13.36714893560725,18.259102827076887,-6.808901388014034,0,Neutral,0.973
1.01953125,6.460790299275808,-32.64561066939098,-8.653851812742682,8.55948205196083,6.58883468208605,-14.212231286840451,-3.483346929363201,-22.09686228920209,-28.04364601034117,-18.145032955170084,-3.8666041400051934,-8.267647815465194,15.390479909981782,-15.646110983715412,0,Neutral,0.973
1.0234375,1.2601481564693648,-26.65785084998665,-8.800358295091876,7.613952991307019,2.974349094071611,-17.230790508860327,-3.281751829761746,-30.52422279669864,-29.254196264317823,-26.679904855224077,-4.522118535226798,0.05006112364766156,12.147812459993215,-21.9181701237274,0,Neutral,0.973
1.02734375,-5.64744801123793,-20.73969173882531,-11.05895314603495,5.857031913849687,-0.5843922126000777,-22.502163542152008,-7.117780140452622,-34.541320556260764,-24.979024017129277,-29.042950655020537,-5.15814431245513,11.508510582719637,11.792883264430452,-22.83663239934045,0,Neutral,0.973
1.03125,-14.7653768389762,-16.21078518200394,-13.006076054520994,2.477839577274649,-6.471064308838716,-28.636268994233244,-14.597025341774422,-34.51411054889272,-17.54081635361898,-23.73100625242368,-2.0564100214604504,23.519742903050325,15.010151197097361,-18.86248690601044,0,Neutral,0.973
1.03515625,-24.453554980675495,-12.488788329187427,-11.753150460335291,-1.9804469261264617,-14.556823210070911,-31.448507087618296,-23.04527461339141,-32.188036727854595,-9.83785171822997,-12.79204448330922,6.4974377197206215,32.202851210825074,19.3888408215886,-12.50467742926335,0,Neutral,0.973
1.0390625,-31.7553925592898,-8.385861178806895,-5.92341048429784,-5.964839726328458,-21.920780087318462,-27.02672327831988,-28.9225945790661,-28.95050013629302,-3.6079918692861876,-0.4727368910500823,18.467039196399806,34.75000121258921,21.341249644938813,-6.053016849997469,0,Neutral,0.973
1.04296875,-34.17060059492153,-3.606305537933862,3.346831629974622,-7.986081251253176,-24.7734920516423,-14.928885955988092,-29.631354943715557,-25.134467372479396,1.2193240267226841,9.097781865765102,29.270491799976465,31.053854330137884,18.92285147138505,-0.3328923208400082,0,Neutral,0.973
1.046875,-31.52401631872816,0.9379295685532203,12.901257520456712,-7.8357411603039075,-21.148030581695654,0.9882714260378345,-24.698839619875937,-20.471268653899713,5.8860991302833146,13.689945983903323,35.0115860411945,23.617654076707073,13.233551315988322,4.85219692458452,0,Neutral,0.973
1.05078125,-26.418233183181655,4.122089178561932,19.304219895392844,-7.065948579207641,-12.245933891799128,14.772995952184312,-15.843426815742689,-14.682146105298838,11.426116419668116,13.460778603594424,34.86364405292824,16.05088470648054,7.221295448181746,9.566874989661484,0,Neutral,0.973
1.0546875,-22.397307264317984,5.727083292333836,20.91982920459164,-8.095384348872587,-1.5497160398902357,22.028613863036078,-6.019765576987233,-7.635570401518573,17.449245684755425,10.36007417879543,30.815811865168126,11.198423291219259,3.0601403205710427,13.120547570884678,0,Neutral,0.973
1.05859375,-21.078592049728233,6.5461281131534985,18.918869056726024,-12.292868319372204,7.274135907736228,22.325035275724908,2.162333489926569,0.558809485560451,21.911922386162797,7.001415419893017,25.668166159552385,9.963398414584713,0.5565322588501596,14.357033960085138,0,Neutral,0.973
1.0625,-20.85433470860385,7.66455252120855,16.131793129978014,-18.539289444071873,12.133918930262787,18.73281269900757,7.853840743368246,9.113587401515339,22.178199387978943,5.399063546177025,21.22027211084504,11.240144004236727,-2.148843015180655,12.522138330505275,0,Neutral,0.973
1.06640625,-18.535087084463544,9.848834983068603,14.341992760952966,-23.763376751709295,13.241382369372625,15.240182678800213,12.079004341848577,16.230607140608644,16.786756866559337,6.082585655261539,17.540635831546332,12.691382648017715,-6.53997272118512,8.205608723778422,0,Neutral,0.973
1.0703125,-12.574951172803964,13.335125902209825,12.44160616617034,-25.167556771659694,12.695820184118348,14.263986355855724,16.21350679077404,19.73441949661559,6.690902712733546,8.177305734761815,13.181865881291474,11.976876666505873,-12.216313580321174,3.72464234255993,0,Neutral,0.973
1.07421875,-4.912361976432387,17.685264223182337,7.504172136384674,-22.042677050305493,12.960729286125979,15.790330118722691,20.22034712256386,18.638521726710323,-5.044677704673601,10.410831758026879,6.2350640608157235,8.089952760047407,-17.01411655151441,2.2344615100934218,0,Neutral,0.973
1.078125,0.4297257589966679,21.75886302820943,-1.9987728658230388,-15.636450675633808,15.035085160439174,18.112458802213435,22.528225806602915,14.326196302918557,-15.089223161445501,12.162533601150523,-3.9675961382491,2.060573778302686,-18.545665103446,5.616239914444822,0,Neutral,0.973
1.08203125,0.8215439735729507,24.08882837133012,-13.955452936092508,-7.776202103682189,17.806287391352715,19.270224212610557,21.74540972237412,10.024294390444712,-21.911957117537813,13.633128614986006,-15.596173590444097,-3.8778589801441163,-15.956981285730457,12.649383329581052,0,Neutral,0.973
1.0859375,-2.6287994592785418,23.360109986628157,-23.678131039440174,0.16490636295265193,19.14438174305065,18.277558092587544,18.441571513301106,8.75612749496712,-26.254316319740795,15.156018247899903,-24.951580935351387,-8.345840992429046,-10.529045916063394,19.302769077093128,0,Neutral,0.973
1.08984375,-5.9360497650328785,18.59924534455136,-27.466826476022348,7.421830098232599,17.565785995781397,15.504534775898344,15.226196709338602,11.416604300723385,-29.586293888133714,16.580352800937263,-28.8960682889429,-12.14915871500515,-4.625462962420818,21.244437936540038,0,Neutral,0.973
1.09375,-5.340550247887001,9.50611240904151,-25.467040876453147,13.534704769491336,13.01156516596392,12.033860614054234,15.030169048546421,16.467527296394284,-32.176069238059135,17.302718448342045,-27.035865071242632,-17.281702329480023,0.1590338539133892,16.66506760778202,0,Neutral,0.973
1.09765625,0.03992240434828441,-2.6287030663008712,-21.235465673366726,18.02748511254405,6.623949564478582,8.439365539817263,18.948932449601557,21.24572471169344,-32.61717384299755,16.44855508051593,-21.732845890989623,-24.435930572451174,4.0971376196789215,7.312326281752759,0,Neutral,0.973
1.1015625,7.921156036853493,-14.310917776915666,-18.487007377580674,20.328574571660933,0.3106803767756539,3.955393090074574,25.19259746104007,23.63848010942017,-29.03153470982145,12.781070318221289,-16.132511864024536,-31.52693566120329,8.747193840959465,-2.90626686062886,0,Neutral,0.973
1.10546875,14.8324154093881,-21.01343948867133,-18.02399075929288,20.041672683046865,-3.7295828934892943,-2.979870885541662,29.887400124016267,22.944737585866584,-20.810533947089656,5.0437215723700355,-12.00856107417912,-34.71736016389748,15.233730745209279,-10.610236665630364,0,Neutral,0.973
1.109375,18.69200163220723,-20.006715521823445,-17.458798524123335,17.354131791953147,-4.072959113976023,-12.741642567123044,29.309345121098815,19.695808588006837,-9.579399635067142,-6.652367569707217,-8.974966631346248,-31.096833354915457,22.869615923195745,-14.828013061370612,0,Neutral,0.973
1.11328125,20.077114499118018,-12.58104855347194,-13.731480219378444,13.147724149038893,-1.4860511749999228,-22.69355241796097,22.214156169561697,14.987227702047836,1.341893671236474,-19.5340794252681,-5.351301092546681,-20.882536981437664,29.19100956695428,-16.685229851750883,0,Neutral,0.973
1.1171875,21.38219372257007,-3.4537017530133713,-6.159247251185521,8.53248119625479,0.9158847859800252,-27.842382617062878,10.75542207710264,9.857316542858134,8.717877968980414,-28.926208252048486,0.09688916251064136,-7.551737391584448,31.33528126132799,-17.5263547630732,0,Neutral,0.973
1.12109375,24.568085702010627,2.328662672842216,2.539298858972154,4.0427891002899985,-0.20136277243269401,-24.38302748291729,-0.7855866734783356,4.835338231488256,11.310267078454654,-31.184715935221075,6.794668760132627,4.050017200424872,27.79917728196716,-17.526484323559377,0,Neutral,0.973
1.125,29.186914359905682,2.396878009151278,8.144080333893827,-0.7142123945564858,-5.559663963282294,-13.282019390569836,-8.793758810051722,-0.2849195764509461,10.677839471198013,-26.358331906015547,12.449371592623722,10.266073855879114,19.405623431354506,-16.150079831182502,0,Neutral,0.973
1.12890625,32.31956058833138,-2.2351193995992014,8.244302230065266,-6.321632872895992,-12.643278405305855,-0.1777177532947921,-12.602037383526614,-6.1989291154900625,10.137247453261413,-18.12848044438116,14.684406475961426,10.39033530703857,8.825781848660386,-13.702527122921184,0,Neutral,0.973
1.1328125,30.70869604574329,-8.597920895125228,4.2573400549721505,-12.215581271454365,-18.03992331373484,8.887425113510835,-14.341077416319044,-13.298168481267062,12.252984361196015,-11.262973844082149,12.894035078559877,6.791474092010535,-1.0530675595703085,-11.995295867306403,0,Neutral,0.973
1.13671875,23.41952197679283,-13.572552524896533,0.5653344405481688,-16.239640443321615,-20.386041432526362,12.037890190902322,-16.515642025170667,-20.774077732045058,16.635339305392097,-8.886396639805467,8.606428887771632,3.2739250378430325,-8.818199875434644,-13.143605456222245,0,Neutral,0.973
1.140625,12.736962377115235,-14.904207355009364,1.4474759943814388,-16.03913182043774,-21.147957138021656,12.03024410355517,-19.598136148922883,-26.390251405753165,20.146184953614966,-11.268162839528364,4.114129524922125,2.597363274224899,-15.057971349450797,-17.574543022726242,0,Neutral,0.973
1.14453125,2.5613955471674257,-11.592720763605763,8.040873485290875,-11.332611901922876,-22.81871322130398,12.521012106989918,-21.775101294871767,-27.462243891450214,19.69285492940992,-16.21694040548503,0.9221805958616238,4.97569041151364,-21.32297747896652,-23.13982323415803,0,Neutral,0.973
1.1484375,-4.316294388490671,-4.101936462349912,17.55211015674885,-4.850806588033939,-26.434916541683915,14.374328611513011,-20.85297247857787,-22.69266965524665,15.153764215834155,-20.524046538686722,-0.5829165937137104,8.67462124337697,-28.37467368417791,-26.141822561049267,0,Neutral,0.973
1.15234375,-7.94363298273255,5.755370216392271,25.37931977259838,-0.7893939027191077,-30.594543387921046,15.584346474152785,-16.544888029806803,-13.54513643624979,9.615691818713229,-21.75943841529048,-0.5834926363955482,11.805808218307709,-35.131319529702516,-23.5373719469502,0,Neutral,0.973
1.15625,-10.70435786341308,15.514440244052844,28.5663753049942,-1.9840286488766552,-32.498603325662245,14.09970239845203,-11.24445324521537,-3.9091125804148175,6.711903812303789,-19.399264544834438,0.44851839162390383,13.516070415895651,-39.145536545012604,-14.87976837659487,0,Neutral,0.973
1.16015625,-14.993750447091532,23.015789142403595,27.861729136536386,-8.093891360580153,-29.78029051997082,10.198861276210325,-8.5535527353966,1.9884979774503904,7.665504828719513,-14.56905743720713,1.6279215626988595,13.958910020995882,-38.31391264860514,-2.755403944700211,0,Neutral,0.973
1.1640625,-20.908217329749405,26.995525551039393,26.682371567639198,-15.982118814296996,-21.771122452399407,6.26406084513785,-10.50046023171978,2.1526912820926354,10.59881542591007,-8.819060627519875,1.9240825246101525,13.722288391084774,-32.54380713289281,8.653829880646807,0,Neutral,0.973
1.16796875,-25.891337778930957,27.14958342868508,27.744979680508845,-21.736241113477384,-9.852047146719602,4.640492436554023,-15.630809769486731,-1.9716224368087722,12.219067243437157,-2.9872408136800335,0.9669553689155961,13.251208343618085,-23.982545981570606,15.98896211459288,0,Neutral,0.973
1.171875,-26.686377681019827,24.02820765715692,30.197653623608563,-22.861832941873594,3.0340085585279994,5.742441051065205,-19.70223895376208,-6.729679288076562,10.178910659421662,3.1694251330851553,-0.5252232310491007,12.304421321521446,-15.550987999355174,18.47017320754457,0,Neutral,0.973
1.17578125,-22.03905816344024,18.89289728494542,29.98379072381624,-19.29969229768733,13.698579022695654,7.743828309492488,-18.560430547118482,-8.976598963825126,4.543670260438412,10.458700203218653,-1.4139391915504869,9.72990838407882,-9.018305684304483,17.87317452304565,0,Neutral,0.973
1.1796875,-14.046946564488692,13.23426656308575,23.432865864486267,-12.829899599729066,20.315825298515936,7.60499907009006,-10.98857865535774,-7.906796221497314,-2.3389114538129125,19.150944474450917,-1.396539985771483,4.098786619817488,-4.1541619621097015,16.931676682559704,0,Neutral,0.973
1.18359375,-6.997872787747609,7.996423192116039,10.848197097732644,-5.602025407192834,23.163234877510384,2.654422891709263,0.47307779527055377,-4.625879396039809,-7.477626945820766,28.073815148557298,-1.5909111417510693,-4.883828095606565,0.5493943123322895,17.392680344602596,0,Neutral,0.973
1.1875,-4.27799157132008,3.2304885822148006,-3.4128670093491893,1.0436784616025185,23.934887544450905,-7.755517071833689,11.198327729185955,-0.4685732819411191,-9.33354882936083,34.8175894376657,-3.7537991319551716,-15.255304192322583,6.241008944038902,19.12877165685673,0,Neutral,0.973
1.19140625,-5.667479660952075,-1.374508076850173,-14.4540053383843,6.924126476148911,24.39835322999954,-21.191280003153928,17.481546907283782,3.9604185194953963,-8.741160385299281,37.145037866590116,-8.728570751993896,-23.207588619175052,12.349523801225137,20.944652061460953,0,Neutral,0.973
1.1953125,-7.5774327839577165,-5.680806236249517,-20.472484748319303,12.709799972946675,25.434742355895267,-32.842385553785746,18.719360075505293,8.349563847322933,-7.882982168691369,34.486015123113994,-15.439605197093556,-25.17545828431779,16.65060590304487,22.23342709843813,0,Neutral,0.973
1.19921875,-6.384318700291958,-8.949586335698923,-23.21925127395264,19.26377649817879,26.61526637598996,-38.27002260172081,17.083714305222227,12.01564619298724,-8.289018126263166,28.24089806942927,-21.27024622260833,-20.16954506161902,16.98859652818673,23.67719551264995,0,Neutral,0.973
1.203125,-1.8264946342822124,-10.505773759835453,-25.44740900843217,26.858754396979435,26.161742476371515,-36.29549088877234,15.133503277897065,14.294461567704019,-9.538691828303213,20.848477106694503,-23.537793688869876,-10.510122502040199,13.287026543928437,26.116668844391622,0,Neutral,0.973
1.20703125,2.8316894841492983,-10.56397876937607,-28.175533307349824,34.6350854643695,21.74335778284677,-29.44548173532058,13.621273701499701,15.49033984928726,-9.426438356080794,14.656542608398958,-21.012665647016444,-0.42894553980321304,7.911125348692175,28.811415669556013,0,Neutral,0.973
1.2109375,3.8955261832110173,-10.4849225094795,-30.01943758162907,40.627037844489145,12.348314153957126,-21.639596669040404,11.278968440134962,16.700203035507563,-5.287763593471264,11.301236246096352,-14.510857711668507,6.328527680239371,3.920761385576248,29.118474448160637,0,Neutral,0.973
1.21484375,0.5741683654074323,-12.16514714019381,-28.59508512272101,42.412931231825056,-0.06481276047980467,-15.36195942295067,6.425323008460179,18.19771504381644,4.09602664959485,11.340194962075424,-6.293351377924148,8.304521973244452,2.749388022850014,24.173172188601974,0,Neutral,0.973
1.21875,-4.265899122431733,-16.8478869805981,-22.64734729852828,38.26783446843991,-11.119675870931623,-10.551534602385154,-1.0898331918799014,18.26508471122322,16.931186060273877,13.822992182959686,1.2507365368964984,6.671557790267808,3.2851320049072776,13.217484520320607,0,Neutral,0.973
1.22265625,-6.273609039958711,-24.149853747647693,-13.489703663788315,28.459062186008527,-16.89678966307238,-5.644951865353595,-9.110082134328866,14.22700922578346,28.64556368424785,16.260433575330065,6.875087838774056,4.1741449253407215,3.0293682012437477,-1.2689451443342976,0,Neutral,0.973
1.2265625,-2.868385114921056,-32.040354007598246,-4.714706234372828,15.817949630804765,-16.658499182019842,0.29642687898858167,-14.22568790416701,5.03118434475286,34.55317591710745,15.615127548767308,11.08376419607526,3.300843766012937,0.3108877001977817,-14.517602094105708,0,Neutral,0.973
1.23046875,4.850085715219199,-37.69982239693065,-0.00902455901167698,4.659371897374478,-12.966639580755412,6.126508488756385,-14.09423323947703,-7.037618902526723,33.13556699670722,10.013057011214547,15.664532455057847,4.766402642514722,-4.250410604241412,-22.03728581759945,0,Neutral,0.973
1.234375,12.900361804255578,-38.54787075499126,-0.44251301793805803,-1.7067275915173805,-9.388395774844147,9.28170153767815,-9.44619933502435,-17.299584092251116,26.864249954893072,-0.0007616919795882249,22.138453905810845,7.455863177011565,-8.223660898857496,-22.30048322653323,0,Neutral,0.973
1.23828125,17.319519966392097,-33.089974553255715,-3.5554205943780546,-3.0276868750858257,-7.963812049974768,8.270358450250777,-4.0812732103427525,-21.74991844755275,19.619171710347608,-11.690724884769732,30.028738757258992,9.871910086943698,-9.39010342412385,-17.750536626757167,0,Neutral,0.973
1.2421875,16.998565570986905,-21.68761221364435,-5.3735302049510105,-1.8616237696641895,-8.164983875437596,4.655524387619183,-2.423483673082227,-19.688632146286828,13.240518116932611,-21.775581455930368,36.48328512489259,11.587385540934827,-7.556743988348392,-13.236085546696607,0,Neutral,0.973
1.24609375,14.258095569057334,-6.927171283313603,-3.7258417727991846,-1.270722483605724,-7.710922202198368,2.405782307954022,-6.31171904728439,-13.732387174906833,6.5577709194697915,-28.25297914983979,37.93723805827418,13.30969792505199,-4.634313609510649,-12.82086549076133,0,Neutral,0.973
1.25,12.648715871867228,7.089720363318142,0.19073205135109586,-2.6909485564158837,-4.611771893342123,4.954632704240575,-13.728667667994573,-7.644557427153145,-2.4795639162731744,-31.057573375941057,32.66899405166857,15.831489522491522,-3.10950046029501,-17.25988566931602,0,Neutral,0.973
1.25390625,13.752487856442862,16.48921685813521,3.3362214195971536,-5.742685000106525,1.020860716756713,12.318577829655219,-20.549837783855985,-4.096414262958434,-14.027202456854296,-31.32810393554592,22.172985030298328,19.029378985038786,-4.295065711315247,-23.97863742911428,0,Neutral,0.973
1.2578125,15.702657315377687,19.409410393850408,3.784552727441153,-9.481727514531565,6.956374498912535,20.520923307475858,-23.53292790751244,-3.6333648054141614,-25.64240441455105,-30.20326981443746,10.215459067193388,21.489531268459828,-7.494002214854154,-29.40301527390242,0,Neutral,0.973
1.26171875,14.69922996670689,16.75689680547429,2.3968914242463795,-13.329810891023664,10.593569148727983,23.957238386209497,-21.93372134870461,-4.862358152637627,-33.9723092141713,-28.147363508115518,0.3671177996941174,20.841640790068674,-10.392833095936508,-31.607427883985103,0,Neutral,0.973
1.265625,8.248830173587894,11.586678380428427,1.951132504783247,-16.923371553345593,10.738271643500982,19.24414032170535,-17.015407171163847,-5.657995298224203,-36.9448572248735,-25.046223260990338,-6.03896861186343,14.92054797578196,-10.505681141227805,-31.11456197972234,0,Neutral,0.973
1.26953125,-2.5502271863056487,7.587090342065626,4.61201437313548,-19.730091214258945,8.093601338881946,7.7057095154228845,-10.594582848038579,-4.848965669007067,-34.6516435173015,-20.669180880139997,-10.135883751453111,3.401208183229918,-6.914610425401699,-29.442402291040988,0,Neutral,0.973
1.2734375,-13.55708378996077,7.479495790187052,9.85318602724148,-21.343356369048678,4.690195689840469,-5.564952763434417,-3.8204231538655273,-3.1079511936268056,-28.77804799869947,-15.094451852053268,-14.07264979410536,-11.230868549707504,-0.9604622805664588,-27.004216746403944,0,Neutral,0.973
1.27734375,-20.518647855077557,11.916499202558468,14.547124040396168,-22.05978210170975,2.864484634517562,-15.330398642793256,3.2955904775743905,-2.13622291162003,-21.54660187106171,-9.005889947354705,-19.147752383989463,-24.36525526320245,4.893719536854263,-22.424387144801514,0,Neutral,0.973
1.28125,-21.942609521754534,19.222364641362827,15.138101280625568,-22.739063785281882,4.052229030091537,-19.474842209600347,11.35921824377449,-2.850869441500712,-14.83734971691245,-3.787694733171004,-24.87423709184962,-31.524299248249662,9.112363945384518,-14.020191246886741,0,Neutral,0.973
1.28515625,-19.65136665889461,26.229008494261933,10.152914690713251,-23.859601885451124,7.942290994425843,-19.37100113395945,20.26534748891538,-4.297170255755739,-9.528155111296972,-1.1156293591349216,-29.442904851943354,-30.982296755345224,12.188567791873302,-2.211374179491911,0,Neutral,0.973
1.2890625,-16.88741130055117,29.97430713627718,1.2331572776561854,-24.718962748258985,12.698050632055285,-17.560053943943142,28.157456296441794,-4.250822358822143,-5.21247592009316,-1.9145389410449807,-30.949959124200284,-24.945748286229442,15.856203990159823,9.54235044597297,0,Neutral,0.973
1.29296875,-15.703861891975938,29.194497176596716,-7.956450600356711,-23.630195571426576,16.134011590264443,-15.183401139858402,32.02079685812777,-0.8593608744111343,-0.7160072196894185,-5.272733729041843,-28.466046320498407,-18.110898505372408,21.229389078516423,16.66141455317181,0,Neutral,0.973
1.296875,-15.528121206221408,24.50271567527141,-14.204202270338142,-19.05324225650757,16.904746255291847,-11.383025409143022,29.936378716742457,6.094962044943647,4.687856465909265,-8.327225135966767,-22.558126183148016,-14.403376079399584,27.561348564697155,16.85160958474371,0,Neutral,0.973
1.30078125,-13.818888743881997,17.377217201186827,-16.799460339520706,-10.78390382760418,14.941540851803133,-4.857523013756287,23.191483743084117,15.131017763328355,10.264586297209782,-7.553724877821414,-15.283117872584596,-14.455802154679525,32.62251497977319,11.98990705338777,0,Neutral,0.973
1.3046875,-8.412863204210868,9.21366706577957,-17.479616646722967,-0.2602309488351177,11.136104590249488,4.073990875217567,16.097367594302643,23.945221871045707,13.9323900441352,-0.8094793432768769,-9.570797556388703,-15.866700044511543,34.20534013980593,6.9130069247281,0,Neutral,0.973
1.30859375,0.19522239439729683,1.2122552817200911,-18.41717654764314,10.155064138750259,6.7156414024167965,12.842835529213835,13.23013686768343,30.3481623224519,13.636718164478024,11.116036233917068,-7.841855129253057,-15.765781677773365,31.45178880454132,6.1892955324906245,0,Neutral,0.973
1.3125,8.705606861170915,-5.508962570920257,-20.116229570851687,18.202193236172945,2.624486363970283,18.11881349957508,16.251580104091428,32.63891423619145,9.118258557123191,24.446449098816462,-10.242356367657537,-13.218584191980883,25.19358794625785,11.187863017921098,0,Neutral,0.973
1.31640625,13.410004551040458,-10.307001122506833,-20.911318166345076,22.384740415609716,-1.0131334217448869,18.274516564539724,22.865048259912793,29.72895504287638,2.6361283936804614,34.083616943780584,-13.84588733918028,-9.491058622903457,17.37685668474157,19.38582774148622,0,Neutral,0.973
1.3203125,13.149048287426563,-13.398645575265801,-18.326078386809527,22.271284123134144,-5.1290079475459285,14.79579695871828,28.45520517290066,21.72518764747529,-2.2307908355716903,36.26833667727914,-14.24475025278077,-6.388983164161477,9.947717797544787,26.47201230635065,0,Neutral,0.973
1.32421875,10.176681419795823,-15.371844528740432,-11.201240454726557,18.680821481993846,-11.168735690489008,11.478906927647735,28.95214339912338,10.702799222351235,-2.980585146020086,30.75428644694755,-8.965939372102502,-4.415326095136709,3.6441795245448385,29.596527836845212,0,Neutral,0.973
1.328125,8.12393322635473,-16.225958839052034,-0.8837958136271713,13.511515501187196,-19.728040688929667,11.997553291697418,23.08108900112532,0.3850370303629672,0.07380702077074489,20.964327806383324,0.24948917244499513,-2.2299535803217405,-2.490987882395371,28.880488914383843,0,Neutral,0.973
1.33203125,8.87849769827352,-15.204365844358424,9.507113217113588,8.81836327769402,-29.3720238640446,17.46375133863055,12.779477810848068,-5.808790287650457,4.030470683212024,11.743147576080753,8.764819331506386,2.338042386237333,-10.077733055287622,26.052124961809966,0,Neutral,0.973
1.3359375,11.1628722816113,-11.812850870585518,17.044433684361437,5.565030758755702,-36.95286473472043,25.493879275313255,1.5893543615829122,-7.024116763185204,5.3821335119372495,6.237077139749715,12.964123602640885,10.601012703070868,-19.301158402327207,22.111202487632102,0,Neutral,0.973
1.33984375,12.005970530292823,-6.9674355258745315,20.614193161528895,3.180914763235178,-39.499174358157525,31.490476952682176,-7.783551893052354,-5.490893511744359,2.443882646451958,4.350854871346486,13.189672135492389,21.880190547627425,-27.70767170295834,16.583794545160007,0,Neutral,0.973
1.34375,9.652982375689286,-2.9149127229526446,21.19715687410878,0.42425552133947086,-36.18914331372236,31.542939121648246,-14.84424262328324,-4.636208869782165,-3.42207985503914,3.8198479969411188,13.14379072964403,33.51440259672197,-31.495286122950958,8.786548422811471,0,Neutral,0.973
1.34765625,5.304519267129236,-1.752692803830467,20.804756292459935,-3.2546711518934344,-28.839468528091434,24.936638768681394,-20.68159287540039,-6.347672665882029,-8.826516626666557,2.5459369491856667,16.50348809029713,41.78573614339799,-28.529085833327414,-0.539713698794525,0,Neutral,0.973
1.3515625,2.3150798622055797,-3.811052908039158,20.825639313135426,-7.110448347198834,-20.644208726874606,14.23141817948913,-26.143359278237426,-9.795464750522274,-10.972285413446127,0.08921749140440628,23.82615376992023,43.45211504252771,-20.418350915813416,-8.875333977385333,0,Neutral,0.973
1.35546875,3.593599425933721,-7.340601831707107,21.02107588940363,-9.722054553638824,-14.08434316530132,2.970570059667108,-30.487638065625866,-12.722787037015141,-9.76149189953366,-2.525819445114268,32.190698424147925,37.488217339500295,-11.602940850534914,-13.185081579912877,0,Neutral,0.973
1.359375,9.207810743899627,-9.67281238250926,20.042932330550297,-10.118971130519707,-9.334889637523348,-6.7465055459297,-31.676861220919953,-13.747591845667772,-7.702406326203311,-4.052726467503325,37.393103283436375,25.9916795079639,-5.950240419295269,-11.945880503816642,0,Neutral,0.973
1.36328125,16.039280912084813,-8.711392669438522,17.049009108047994,-8.375029017588467,-4.302317273554101,-14.819816282811297,-28.112549997763693,-13.471164150781991,-7.743820685010757,-4.179399062764898,36.67065139609432,13.278732937767623,-3.6998101666504,-6.541872009950062,0,Neutral,0.973
1.3671875,19.859699089414814,-3.6928029552111226,12.9408898959723,-5.465044642199397,3.5051038277423143,-21.8421940007752,-20.375945768272558,-13.707544612595699,-10.659197651459138,-3.799530854111265,30.14560476704804,3.58849753287601,-1.5832277934344445,-0.8904391492728042,0,Neutral,0.973
1.37109375,18.277330900309202,4.776862902098044,9.995691097830228,-2.8981962211448455,14.540505084618667,-27.437323397701302,-11.471240717271408,-15.98154345346465,-13.992557715866806,-4.365783164946653,20.3392010475364,-1.023151156687005,3.8583257083861477,0.7262762413005668,0,Neutral,0.973
1.375,12.270022013205372,14.866458504325193,10.05411002908353,-2.302410736622769,26.18861557035027,-29.829054282713678,-5.257587939409204,-20.590017983815756,-13.644550752103923,-6.9622130606511705,10.237310429954166,-1.3459693193001343,12.825611859753796,-3.6799788297880665,0,Neutral,0.973
1.37890625,5.1719098872005915,23.736176479328385,12.796921355166395,-4.700384375538471,34.111074488726814,-27.204753733937046,-4.132020427212337,-26.438553968779654,-7.104770480962158,-11.709655226071643,1.4125422526429083,-0.12189969868421913,21.805963523660264,-12.459604297540624,0,Neutral,0.973
1.3828125,-0.04748172554899277,28.234384797485635,15.635278920886678,-9.66656600548946,35.045575706751855,-19.825696851974172,-7.537292083209335,-31.340996809982034,4.292056971540384,-17.57261443524886,-6.262426270671462,-0.3019968018162584,26.28218868495463,-21.270126558927593,0,Neutral,0.973
1.38671875,-3.069957113868955,26.22676654907675,15.342063680550934,-15.147342334212487,29.00113018019385,-10.84635855589231,-12.301554361590348,-32.77823793059831,16.103360890729352,-22.43511974268286,-13.396214313341236,-3.414768414060034,24.0714278573037,-25.698204035674305,0,Neutral,0.973
1.390625,-6.212026425957925,17.84123096462467,10.215579940771818,-18.417309160566102,19.251081515200077,-4.655879907317542,-14.56584619768997,-29.063243358572013,24.019517740975274,-23.646388009053332,-19.963855516800642,-8.926192534984247,16.643280467648918,-23.817302393984495,0,Neutral,0.973
1.39453125,-12.099269658456079,5.625598290952297,1.2881622667499708,-17.623790874467627,10.185175534650174,-3.800675780418568,-11.961709516588588,-20.257466189730366,26.939494372520297,-19.272647028987034,-25.35648742206946,-14.972509004770975,7.715348055355874,-17.019029307035012,0,Neutral,0.973
1.3984375,-21.03793727682135,-6.544415161883773,-8.301623415199652,-12.71603734596483,4.631700652080595,-7.098368346331977,-4.670272803168734,-8.193636672158933,27.32449896202324,-9.55784298427542,-28.98969302773993,-19.913753223165834,0.5318935146577183,-8.618793332770668,0,Neutral,0.973
1.40234375,-30.32606630057976,-15.079976650275409,-15.49518602334143,-5.081781548806106,2.501804843503203,-10.623001027641942,5.0085015488499725,4.238425173189915,28.617809126382447,2.6222269630195916,-30.40446494741159,-23.469719257516147,-4.067237444819912,-1.3670608578960501,0,Neutral,0.973
1.40625,-36.037559626458254,-18.02770817943531,-19.501430494772148,3.54778898833246,1.523973680069433,-10.589620612093965,13.971682787546452,14.092920335405312,31.980252510853663,13.074114497572925,-28.915714959811236,-26.499650354086548,-7.61433813951837,4.029178134819125,0,Neutral,0.973
1.41015625,-35.79945129301604,-15.70295853892582,-22.11570480127558,11.856482206238661,-0.6659746443764071,-5.696886370487171,19.740980209747182,19.565526451642246,35.036768714218056,18.554446335452774,-23.817092855967545,-29.641449600995067,-12.3146400826908,8.192015832624314,0,Neutral,0.973
1.4140625,-30.393069858948106,-10.441873889350688,-25.71556227542608,19.020972180984423,-4.7244285872516585,2.4802704412838796,21.508216434159326,20.967608990797704,33.60799140052882,18.215281422633048,-15.469032841576967,-32.077379325349085,-18.940730715953066,11.282289486938367,0,Neutral,0.973
1.41796875,-23.072565696483846,-5.591755588477948,-30.620115566698313,24.58213094872158,-9.350874829278832,10.715590267939968,20.26967041250184,20.455389158935024,25.04557093281989,13.473978784309319,-6.068444559314675,-31.61628184291395,-25.844514589115597,12.329519751112251,0,Neutral,0.973
1.421875,-17.242184300947923,-4.1268981804943365,-34.3073559249944,28.48517028035946,-12.45327305819037,15.96412166674945,17.597851848390984,20.384579982870786,10.5774899081236,7.1301540044102625,1.249489620559787,-26.1133802101333,-29.999983109094682,10.394343206505102,0,Neutral,0.973
1.42578125,-14.084436592642275,-7.4084955133823405,-33.468486937999955,31.064785461730626,-12.567386212696334,16.87923718826281,13.84483917408741,21.676490080999077,-5.121376023039958,2.408406092619805,4.570647438817807,-15.2012348450628,-29.381698371194332,6.187964309814972,0,Neutral,0.973
1.4296875,-11.69592652341769,-14.59370864366331,-27.14708212003935,32.62348875412045,-9.626916173852988,14.243368512809774,7.8372635400983,23.491112297100067,-16.79950888988097,1.597213409634921,4.661290717366701,-1.1538671881211737,-24.622665182001427,2.384485266786423,0,Neutral,0.973
1.43359375,-6.659894515501209,-22.986270961587227,-17.849689145296892,32.80689278541438,-4.965467970088588,9.956188356350587,-1.132901985311117,24.255776866386217,-21.85973909088626,4.5386100083289875,4.2608707289905485,11.848614523871664,-18.505829567760482,2.085370512515013,0,Neutral,0.973
1.4375,2.654473917634063,-29.189823805346656,-9.355041395852883,30.47907486861662,-0.7088837560170186,5.203503043021389,-11.15914377459458,23.194336836231056,-21.63800094320934,8.616815261778786,5.733774577694461,19.892660681328426,-13.873304940234796,6.469513024273869,0,Neutral,0.973
1.44140625,13.84976721749765,-30.549594274633662,-3.413002403008644,24.472791217313933,1.2928009554756734,-0.5873832573163633,-18.17461895209728,21.096253631429214,-19.801884485797576,11.009992500682165,9.103353765055303,21.55788292268739,-11.726416960909553,13.505561650579708,0,Neutral,0.973
1.4453125,21.90808738279178,-26.274288520912474,1.2979571832859738,14.723538882503785,0.5708371773337523,-8.724353016308749,-18.949394982707478,19.561081381372926,-19.139610541725297,11.12050392695406,12.085101258414825,18.476374363877127,-10.842583279699033,18.959494210282894,0,Neutral,0.973
1.44921875,23.414302853819272,-17.700674426045282,7.06324085938077,2.9178080513689157,-1.5355882795265234,-18.892163778657306,-13.78837755812322,19.510036268365425,-19.357482419434252,10.447337967438438,11.95470003649701,13.89332484312936,-9.025743752040386,19.136554914138095,0,Neutral,0.973
1.453125,19.620443849216606,-7.4540918558525,14.208463225082255,-7.843515968860131,-2.626598014436659,-27.942087484402006,-6.468266172560316,20.48661761867119,-17.667076343288894,10.200282854154837,7.742092788779928,10.610898992030148,-4.984814488460587,13.311849405183667,0,Neutral,0.973
1.45703125,15.366585469267047,2.0492276047539595,20.321819322751065,-14.354959094486965,-0.864181398457205,-31.499062538225598,-1.6429936865852166,21.095979091224244,-11.56284842184516,9.618739291220196,1.2426187812187302,9.831999051238025,0.5564776815172131,3.9535323899626587,0,Neutral,0.973
1.4609375,14.949794564754677,9.728536592929654,22.303815945238476,-15.119831825896796,3.6551899042177385,-27.288634808770706,-1.9528265735884691,19.76803391550022,-1.447208381573862,6.7541586228907855,-3.8503959542416517,11.195446703194998,5.3256600441814355,-5.280734624665255,0,Neutral,0.973
1.46484375,18.761526121673107,15.846302003977417,19.13555918330576,-11.584070591245776,8.907295637228717,-17.28258929195547,-6.801420472003454,15.295899325111128,8.972615014360535,0.502238983902866,-4.315007766376541,13.39068385060082,7.300892896607044,-11.879987298144265,0,Neutral,0.973
1.46875,23.440890308678206,21.084337821651186,12.742646078135266,-7.52945461897107,12.428635504497455,-6.691178973178337,-13.156762326633231,7.212215238667637,14.919952968362646,-8.273853610460657,0.21247408582582591,14.903717985677792,6.602296089838181,-15.339682414065622,0,Neutral,0.973
1.47265625,24.986671654727232,25.537875202031024,6.478717561733035,-6.6113127164620735,13.197260838368008,-0.5043232126412027,-17.509805083136193,-3.8984231434524332,13.985881929598131,-17.29264516983484,6.710309489726083,14.792883699833784,5.7631864928769305,-16.463492070525312,0,Neutral,0.973
1.4765625,21.997391392486513,28.40761871029143,2.938294175878332,-9.955546744770892,12.448006669388311,-0.2440288229064803,-17.812202156039223,-16.240133262024376,8.182751586516474,-24.23034294589945,10.792710392902407,13.128536169213206,7.69146107214529,-16.20660984124589,0,Neutral,0.973
1.48046875,16.63719207112556,28.60317491256179,2.7898173591181745,-15.893032572278216,12.670708937526024,-3.2553946531141342,-14.359138423376534,-27.07504333058437,2.599205703250635,-27.64737658870886,9.800229656904307,10.593313970771284,12.936478401697533,-14.970078657608068,0,Neutral,0.973
1.484375,12.940447939350609,25.801267682399295,4.921302709819725,-21.711957468758307,15.42931508669219,-4.8578365091219045,-9.06677820313599,-33.71475170607114,1.3604281145002377,-26.99960869208413,4.450593198952293,7.522258985632961,18.927361296184063,-12.634432077846597,0,Neutral,0.973
1.48828125,13.74518438937234,21.099271543581555,7.325221669153,-25.4802539299816,19.818450725114488,-1.7258348339150078,-3.6122358118417957,-34.963549605432945,4.320081548102709,-22.4240576154973,-2.10537944162746,3.406700141286065,21.987542114927084,-9.19486883681513,0,Neutral,0.973
1.4921875,18.30154611475973,16.619764431664983,8.1701255197663,-26.640928580348856,23.050937545755097,5.935763443515524,2.028388888542479,-31.94782106153776,7.49307118553738,-15.032580311883365,-6.706860550933353,-2.569283493328097,20.25630671922569,-5.4908660595192735,0,Neutral,0.973
1.49609375,22.404025696509102,14.254684841644341,6.6993546608643175,-25.72932690962054,22.61262866889223,15.038164591691503,9.203866861604563,-27.354017133539518,6.713753158417751,-7.202891667637079,-8.145038834901976,-10.42327606048226,15.075774959101263,-3.2829265393892193,0,Neutral,0.973
1.5,21.326000155103532,14.55424200464118,3.611026667290401,-23.91343594185518,17.825354921806074,22.433958071088746,18.611918694585885,-23.450400462316566,1.0797564436576053,-1.7868469437906724,-7.594520846693529,-18.625447049658373,9.887403766779357,-4.230435304989367,0,Neutral,0.973
1.50390625,13.477955042442447,16.6251438437788,0.575979424481401,-22.383269031523433,9.643370505429324,27.327116118534622,28.662594339580657,-20.605128118615156,-6.630446272776929,-0.42072659798614365,-7.518517299818003,-24.406781524165837,7.502476685920145,-8.264985549029895,0,Neutral,0.973
1.5078125,1.6950538779680269,18.76296170999912,-1.0854584346055096,-21.50655293654007,-0.37986584200671214,31.09650538329867,35.87391069902198,-17.61843018780737,-12.370746017813993,-2.4353782514212328,-9.684940337850776,-25.150210836767815,7.804453388712497,-12.757190147141861,0,Neutral,0.973
1.51171875,-9.122529431256078,18.91502578777364,-1.7044847838371073,-20.254247496989883,-10.679225526812576,34.895983669894214,37.06436426983756,-13.352778077497494,-13.799141809358701,-5.343183159664602,-13.52645736318647,-20.016994687791943,7.845415167878183,-13.641316723326472,0,Neutral,0.973
1.515625,-15.96430190560367,14.950887688289228,-3.1867612873585225,-16.571192554031107,-19.827082191937034,37.537672434962516,31.621390981067385,-8.025081488588333,-11.781777034340054,-6.379717650680231,-16.25119232739159,-10.656931028752695,4.409030503472342,-8.076929814421561,0,Neutral,0.973
1.51953125,-19.682456624963045,5.574288912007581,-7.180611626505483,-8.725116070480079,-26.847016983680323,35.85627957850581,22.246140032850626,-3.1509970696013063,-9.724761306329777,-3.9301909933950294,-14.88695043977502,-0.5247412399515797,-3.186043528004574,3.311469836822816,0,Neutral,0.973
1.5234375,-23.384125855333995,-8.201271368032586,-13.021860909133531,3.1693068874716057,-31.60977873386698,27.359373799477396,13.632220298615907,-0.4329457050933087,-11.135688020592722,1.8974003771307684,-8.540682094793912,6.771814108490395,-12.427567370404876,16.4665830653314,0,Neutral,0.973
1.52734375,-29.05089707238468,-22.588409333767903,-17.60003724249515,16.609125213131794,-34.678222548404804,12.839883088813767,9.72469768652976,-0.5386821588568373,-16.837260189490877,9.641969655806797,1.103565589947907,9.224275003146628,-19.366927811608008,26.315833909086823,0,Neutral,0.973
1.53125,-35.5802883553,-32.72897482133919,-17.563108709083373,27.79072845842356,-36.49499686844011,-3.2886829503447066,11.23780445679708,-2.4715897350970164,-24.004553999882926,17.441066043179557,11.125784044942222,7.338717134782601,-21.17565013193141,29.82734869016448,0,Neutral,0.973
1.53515625,-39.76415606844313,-35.4812086626649,-11.990150383226563,33.667190455392856,-36.67726883407458,-15.238322097800063,15.26999291432785,-3.770302143701049,-28.19459260850565,23.93765015170624,19.026559475785856,3.636597720121737,-17.720000556173144,27.515743689251085,0,Neutral,0.973
1.5390625,-38.9796516968925,-31.000592516105034,-3.1733558811513074,33.34827647811965,-34.16685054080198,-19.131229928608146,17.480412506738293,-1.6243757184317296,-26.804585600749267,28.59148097195148,23.627325355857895,1.0439538587972887,-11.292523512266476,22.50410088494392,0,Neutral,0.973
1.54296875,-33.16861959343288,-22.174852872982143,5.230082802822286,27.94979403936461,-28.108930307730592,-15.279511808781642,15.225994364881808,5.371543021526038,-20.87411634219825,31.357064795102445,25.261082159672455,1.1955753904111974,-4.7914824522063935,18.096238034737073,0,Neutral,0.973
1.546875,-24.701078193926925,-12.916982902900479,11.133849109242927,19.678886362179014,-18.692408414595533,-8.047480030844826,9.167025287473086,15.98009239035948,-13.82532375183347,32.20780645958959,25.39005114788669,3.671966118845964,0.36651881261032837,15.74943042201998,0,Neutral,0.973
1.55078125,-16.589901290540627,-6.595191489418061,15.426848709985695,11.209847748776884,-7.359682168201801,-3.118932052422623,2.097808542922438,26.848111931193863,-8.623968968786826,30.947543088173312,25.540717840906204,6.642420975677114,5.031781233648901,14.857588844777416,0,Neutral,0.973
1.5546875,-10.586769865013979,-4.985840893144829,20.517799859739736,5.126057251214445,3.6209527255085745,-3.665827554501452,-3.8416132456783925,34.51197665317633,-5.786800872430504,27.31464700883876,26.012015012282955,8.488869563268144,11.156877702463127,14.219988377092433,0,Neutral,0.973
1.55859375,-6.394276132836906,-7.713315634662672,27.368346776943337,2.8532047115741177,11.918251752368718,-8.233601718311178,-9.023545128440958,37.13323275849233,-3.3428446246694263,21.210221339107463,25.41233322557582,9.094098087258649,19.655218747197452,13.566686352160705,0,Neutral,0.973
1.5625,-2.2705675071987654,-12.39044885097073,33.804760670115314,3.745947483562419,16.079798515914298,-12.344278744557393,-15.594141081799341,34.76329409885302,1.611103070708995,13.027956057757208,21.552282217786846,9.60628995967162,29.10878470986191,13.538759302606763,0,Neutral,0.973
1.56640625,3.4279259358592693,-15.669517260986103,35.74578995736079,5.474693077615422,16.45547855382584,-12.532170146091891,-24.829590554197363,28.658200777745684,10.625960528296298,4.015647637132064,13.13198887825992,10.874824937020055,36.39139962552027,14.24943785801388,0,Neutral,0.973
1.5703125,10.693820497836777,-14.837469007906787,30.449875319960643,5.595859246700088,15.328811305384328,-8.937227628600931,-35.0309566412464,20.714971356099092,22.125103730526057,-3.7068083073210896,1.0834475382559345,12.052477795865565,38.68810553551237,14.12007245398361,0,Neutral,0.973
1.57421875,17.49912500074218,-9.108891750333548,19.119736945389878,3.084774030991158,15.47319837336077,-4.153091888713186,-41.9702955822939,13.067534626662239,31.722248733104653,-7.9035312401894435,-11.495125717754654,10.772154687558134,35.35396776512257,10.446044615015564,0,Neutral,0.973
1.578125,21.13679055660047,0.06779822755857678,6.519874685593994,-1.1395405108056642,17.81365364199801,-0.1560336644812439,-41.66462185640578,7.249969775363384,35.05567690522603,-7.627370416896312,-21.046821985694265,4.922861210355028,28.227885307803508,1.492320907716167,0,Neutral,0.973
1.58203125,20.304730551009996,9.787552903602723,-2.3739653972341763,-4.908451552954546,20.329739771087784,3.3000122029594428,-33.26845601096649,3.241696610844433,31.04442084195274,-4.294445025219191,-25.69299056773502,-5.425416352611854,20.17214674575615,-11.585648183979991,0,Neutral,0.973
1.5859375,16.258208435088896,17.118860042098937,-5.9285740198034595,-6.288487260740678,19.619247459607276,7.777295744011309,-19.868097152975334,-0.4291315639819948,22.565102993124988,-1.280581738910874,-26.014176410837457,-17.595475836477604,12.94700610963435,-24.750716708963875,0,Neutral,0.973
1.58984375,12.166669498489117,20.489512668822055,-6.444517240767143,-4.951337396675369,14.020153978114053,14.185215713111104,-6.7633141279592435,-5.185255214714906,13.91322215853656,-2.0120426364855875,-24.056916448584595,-27.677220368243308,6.111801879569692,-33.26060722925365,0,Neutral,0.973
1.59375,11.083378452416921,20.249493692512022,-7.465826969852861,-2.5678820487049108,5.472080627707529,21.359554038423013,1.3625498956702418,-10.773055458783174,7.516444152010546,-7.940633647517398,-21.841114005703954,-32.514653484193936,-2.0915840375122556,-34.54185937914851,0,Neutral,0.973
1.59765625,13.841284206393057,17.92970678949012,-10.644911347818066,-1.921089261407001,-1.7130676655455777,26.028699681338324,2.6833291791215825,-15.12423194176723,2.768278827110783,-17.866214667422053,-20.504290758710027,-30.992403789284896,-12.617175660345035,-29.809744635787062,0,Neutral,0.973
1.6015625,18.44843515928188,14.731560450824377,-14.92739200737773,-5.054522659718278,-4.154749927743621,24.49973921690651,-1.042069145814728,-15.98210486493563,-2.4658418261502915,-28.77821145146827,-20.00528879653168,-24.28751184281809,-24.1752931786251,-23.257113918865315,0,Neutral,0.973
