Sample_ID,Timestamp,AF3,F7,F3,FC5,T7,P7,O1,O2,P8,T8,FC6,F4,F8,AF4,Label,Command,Confidence
1,0.0,-1.9988820034478447,4.2180021907162395,1.1579788486834195,2.2200844626524403,0.10682727733461306,2.0974529982569114,2.8512383368227274,0.09161045065455031,-1.8859558019172904,3.890264318505942,0.199522834066439,-2.0627854055488433,2.536726797756553,0.3955857024520575,0,Neutral,0.954
2,0.0078125,24.921758472494894,26.192960963638413,23.784562033845592,19.80129567989575,31.241493648767392,29.83142412695437,23.31474773115144,32.8368273865454,17.412697756272095,29.241495246940058,27.955608795723098,25.113246955160825,33.735465873294,22.73761030003818,0,Neutral,0.954
3,0.015625,24.690317588745867,25.998654598435213,27.309563597917684,30.81884777200089,32.554263626606776,27.45472520212764,27.68877042970291,32.3652951546328,26.729452066858364,30.951421784194835,27.597919192596354,23.13875826951292,38.24653207031493,22.705696906039357,0,Neutral,0.954
4,0.0234375,17.4267033481052,23.594082963474794,20.597442673857664,29.57494775261746,21.401066998886073,22.720671870659448,24.56025262442846,28.304889116010273,26.483880179696847,16.493252996614892,18.552996037469754,13.248015327237855,33.98671952935641,14.558088268567275,0,Neutral,0.954
5,0.03125,17.891302719017375,25.69618649330829,16.251788991645714,28.920639669904112,16.76152936461908,24.91653397407208,27.762419057568753,26.473482688322996,22.90371615254335,12.081417759308355,13.505765924470815,15.508247331278184,32.02325945225056,17.670879662843756,0,Neutral,0.954
6,0.0390625,17.75299357020361,17.097980782973263,11.54439324481578,27.02150192627596,14.078216716731387,14.247389599721629,21.94338954103519,5.073478317751364,17.34230870975052,20.19057327837601,9.761313421122946,16.31264521355539,17.576909106194705,26.351978085522088,0,Neutral,0.954
7,0.046875,21.579257265616604,12.17305546290986,6.61492397952881,6.59113665588422,10.768973856414211,5.440712466771281,2.5736968330033863,-9.695103779173525,8.367357417220472,18.81731002464259,7.52713477710495,13.577486958919138,-1.7226843710910789,25.27775523771242,0,Neutral,0.954
8,0.0546875,24.772029827863808,10.974509698305859,3.4278672046368577,-11.02888458822887,6.115935458195718,8.920516652846135,-4.509557017522793,0.4677973148766772,0.8633523963080931,0.9062374643530617,1.38936530388878,13.939886395861784,-3.6883806962684247,12.303891342186283,0,Neutral,0.954
9,0.0625,7.544100447324632,-11.928769330264197,-5.357209634560571,-4.256725669910599,-3.4773514467973143,-4.275547194171006,0.677555254599949,3.9306691468146284,2.515962737459683,-17.603953888986673,-4.840484587858622,1.5644835232405714,4.60739047392457,-3.482834083220312,0,Neutral,0.954
10,0.0703125,-16.360301276495548,-28.9009186709102,-16.964487298859943,-0.21835217524638573,-16.311473269822265,-30.035867278844734,-1.9405025441028765,-0.9156603103404016,6.383936369241163,-22.021600879906977,-8.205616900304182,-22.328189762355432,1.0540535959735353,-16.71301366548983,0,Neutral,0.954
11,0.078125,-22.979507655953878,-12.26443716311438,-13.413439015527388,-8.722669544532287,-25.259992088687866,-28.72220963951291,-15.116737027280093,6.853486279114891,-1.8317526384800904,-16.127274314467492,-17.033016052553627,-27.036162949918364,-10.301520842586346,-23.505073055065804,0,Neutral,0.954
12,0.0859375,-23.543718546788543,4.1916598884573215,9.106093887267424,-5.294252204370453,-19.694244955236137,-8.110240387467211,-26.952893978207022,10.640678786046394,-13.705182184995834,-9.199732394495118,-16.277944266648596,-10.382534076564404,-9.111498303843291,-17.354704440735105,0,Neutral,0.954
13,0.09375,-24.292406808253926,7.015302392929325,28.041009239671705,5.258201924469512,-2.2354210563929815,3.5282776766749855,-19.806396331890802,6.895832538571476,-14.026889105569019,2.6848150150490255,10.786325393053803,-0.5595052747275127,-0.21560423362789383,-6.274317257252857,0,Neutral,0.954
14,0.1015625,-14.489145327925495,10.4464387550132,24.15119122610738,4.130551455283377,8.583331852605204,13.141309109435973,-1.6063533811818864,15.556290473447879,-11.843686990895204,13.144761482311019,33.61914221626197,-4.614233815033251,0.1032330357451483,-10.177461536039399,0,Neutral,0.954
15,0.109375,-9.362297100958086,6.140459582635072,10.416006191608737,-3.690000128498566,10.741436441387203,16.52044703964067,6.8409216668246176,22.31558975360596,-13.051572499423981,6.718645529867667,25.04534326169049,-6.471041420345138,1.1671996628100623,-21.085141960261108,0,Neutral,0.954
16,0.1171875,-19.74785881334822,-0.1431311877342728,7.607178648517533,-4.7410461250381175,10.702132085269191,1.4381569007885817,17.17157348272621,15.242983754875207,-0.7851994164135996,-0.20294627635909848,10.148601512557018,-0.9182000728783889,13.862473753601869,-9.470587220194808,0,Neutral,0.954
17,0.125,-18.599673743718565,7.325011882580668,8.274069133648705,5.8894046767698365,3.9376780896112455,-5.605401286916674,25.97196773910043,9.43931120573082,23.50078557887648,8.47051517962672,7.458324222102643,4.804608854125428,22.01724676269713,15.390637501789746,0,Neutral,0.954
18,0.1328125,4.101850530941666,7.724031046024298,-1.7169393308985115,13.584313706896895,2.5541639130253335,5.261838341709755,6.231672728373535,-3.8214728252468326,30.737002611843046,12.725684215580166,1.1464455416635724,12.84463586006812,11.023885280097698,19.061142215859576,0,Neutral,0.954
19,0.140625,21.8872522187783,-13.915578337369562,-15.276351719553716,6.655561313733842,13.890689984496662,2.3971019343184183,-20.018845963024596,-30.432835986877432,18.13179134598233,0.7770445695674371,-9.667651994341561,21.873475863829817,-6.160003557311276,4.775863408063543,0,Neutral,0.954
20,0.1484375,23.99669255327295,-30.939546764006252,-24.379541648291095,0.11852379904153684,8.90880127300269,-15.608708144041898,-20.648281564705933,-38.776220514976714,10.518416757499054,-17.68624813582351,-13.1208483633023,11.296134175180907,-15.480612131883184,-3.7209902824053844,0,Neutral,0.954
21,0.15625,22.557309819037776,-30.689503539346887,-30.923757511252127,-4.800820121195997,-16.92318801347679,-23.537789870846773,-11.897267856765499,-21.590232292048775,5.976846762128416,-29.795848889934092,-15.097862486129738,-16.17200672409746,-22.64811348708135,-2.3762016969781365,0,Neutral,0.954
22,0.1640625,17.151066511279797,-26.069876007571917,-25.895096665150792,-22.699840888261225,-30.840704063819008,-23.135680016267408,-9.967865593152974,-4.990598847943445,-11.83407234847151,-18.326262906041112,-22.683374400406937,-25.813359274887972,-26.98630188232749,0.4424521069001217,0,Neutral,0.954
23,0.171875,5.597214701574482,-10.26312997396337,-1.5681793705408875,-37.70139862907952,-27.769227908762936,-19.160830798309053,-7.111479654585495,8.634693389859804,-29.69445531795565,8.503534091983752,-28.076389084450803,-16.03364270865501,-16.421599049855555,-2.725037403849346,0,Neutral,0.954
24,0.1796875,4.938920039790994,10.520051890331953,16.764837992223825,-32.18961684893434,-21.058623395397632,1.5070843258144488,0.387546320272068,22.956751177506078,-28.155626243279684,16.062615763544795,-16.104829849467002,-15.57457134815924,5.46655283316826,-11.938857588858989,0,Neutral,0.954
25,0.1875,13.900896265090926,7.255836896439602,7.710958163420613,-20.342930097576378,-8.440373750395082,27.042939945361233,4.949004075723568,21.571031735818373,-17.541458436472016,5.83914440595847,11.46938369285625,-22.988951468861174,22.0558082979426,-23.13170079734312,0,Neutral,0.954
26,0.1953125,6.4915835855428945,1.7696855028075067,-2.9017875628781313,-12.080964560733673,7.35598696625145,26.821283817887092,2.8341956259841097,7.910638263323386,-15.712510036505556,9.98346913954396,24.507517702266995,-22.876997855035462,24.71175624972469,-29.207712700813115,0,Neutral,0.954
27,0.203125,-11.586102999027812,23.811873956192272,4.931001616923555,2.0913927354208397,10.356478127756471,13.688283567264824,6.911925673019968,2.7691671437908307,-17.435382994584284,27.000074600757646,11.864627204679465,-20.711194228559506,20.994039593063203,-16.933934478719483,0,Neutral,0.954
28,0.2109375,-18.302470436621526,37.56121029548669,10.117302581562978,24.869252871258766,2.400131524737244,16.04366991574962,23.625111433279496,0.6859054182346582,-13.038116707310808,29.808737378075413,-0.6954675607106724,-12.82975193584393,19.21318206653065,5.552398274558929,0,Neutral,0.954
29,0.21875,-19.789866881028047,21.17178172488922,-1.4289931795759698,38.55615945396029,10.891602001769574,18.811661963597146,32.10539670507253,-5.533136460747099,-8.066189178578938,11.997910257395333,-2.650673960639424,12.272438984144683,11.991905648486693,9.064219720104456,0,Neutral,0.954
30,0.2265625,-14.85546739085861,1.6930012957957628,-19.915353390025782,29.397158374677765,34.232355765487505,12.528275182468418,18.758719220124306,-2.700764328027819,-5.260234620998467,-11.249871358832978,-4.627274100209862,31.74206494889956,-0.6340017867201841,-2.3623525376263954,0,Neutral,0.954
31,0.234375,3.3821186778382604,-12.850983382029261,-31.515850682428763,15.671770879622434,35.33417952542391,8.526501084915031,-0.24068427488896038,1.0401603354267883,2.029060925609753,-25.786056676383268,-9.083673099460983,26.374481990377987,-3.5362722198244114,4.959788286555028,0,Neutral,0.954
32,0.2421875,9.050452159250145,-21.51938036031766,-26.99295337457058,11.298855700287085,16.51281905014055,-9.276668474381063,-14.032894166505894,-7.675555542176519,17.443344345126793,-31.419768968272564,-14.022004539881042,18.613510913042088,-1.5684038041716168,31.09817967868612,0,Neutral,0.954
33,0.25,-2.997476857673325,-11.450979958143535,-9.808272527130875,0.04724571567553426,3.0380546794661716,-37.19350947451138,-31.086524113022115,-6.860824191707321,35.07226518111689,-31.458065998801136,-17.06302236989132,21.354439758209807,-11.742324524110355,39.637508445526365,0,Neutral,0.954
34,0.2578125,-1.0017508293676234,-2.0076863397058835,9.76050938588876,-15.74353548425168,-12.25998170694085,-38.20185293884475,-44.48449344209468,9.656642780130168,38.38252603305169,-21.86131471507946,-16.969635915797227,24.63275353333563,-26.22020120709283,21.314446125706848,0,Neutral,0.954
35,0.265625,10.600348843658576,-13.44643622532184,22.558690202860756,-16.395610293399134,-24.723542609774274,-19.364918222783302,-33.262798198300175,18.099033385239352,22.59855520828986,-9.478732017868435,-14.1204574525974,20.903864243000925,-28.40208229764289,5.580172332800876,0,Neutral,0.954
36,0.2734375,13.059845374217932,-17.47390096321455,21.865301424481906,-8.03925077856044,-17.05595692764249,-7.59649667035335,-7.522409811844998,23.937804581424487,6.332533408476398,-7.656867245430582,0.049633100763990856,4.849200975486527,-21.272841224288317,0.6280068904907117,0,Neutral,0.954
37,0.28125,18.555229161327077,2.5897799824010317,16.421324780531272,-4.510144793546485,-6.347781692959293,3.24236151973257,2.347797290470944,34.828940771866705,-3.34825098341946,-5.640884709933222,26.717336488338606,-13.452514144409024,-12.211053479468443,-9.420610371327646,0,Neutral,0.954
38,0.2890625,19.041851722692083,18.833893600406295,21.013523380125783,-5.8519947230136795,-7.125555579574859,12.327943505585347,-0.4731696411963462,24.296883928251106,-15.424675340132893,13.04750748975825,40.60941382772261,-21.837090939831562,2.425542758954174,-17.96236679168199,0,Neutral,0.954
39,0.296875,-2.5221054345466873,17.147271951112657,25.620347929225353,-5.245158052067439,-9.059619751121204,6.714224028500015,5.662083759569464,-6.120936271441879,-21.746492436689024,33.16954644885151,26.179889126456928,-22.334869962012522,22.830149335394033,-15.773415210084789,0,Neutral,0.954
40,0.3046875,-17.94457942298625,7.049172999679841,9.239462691657376,0.14919115698709934,-5.088827457482026,3.6446953997337164,15.448553504607135,-23.80508630841342,-11.538636199395203,27.571434306556615,6.774043564575631,-10.680622029627884,32.81004225932399,-18.673591599985535,0,Neutral,0.954
41,0.3125,-10.483234361703529,-11.153507800534271,-16.63814114064898,1.089153509912213,6.969312724292354,16.57563253911751,16.941264600987324,-29.888510870335438,1.7431756075040545,1.4696733094218644,4.122794179456995,2.9900300579414414,20.346305818635386,-32.55607862327386,0,Neutral,0.954
42,0.3203125,-6.739326796824631,-28.277215083729025,-23.044237727556578,-2.2047286622856164,18.926624064997007,16.29899736893141,15.685021144733744,-31.795545192607488,4.178460865037877,-14.710340339823464,7.18442356133588,-2.9075969330651383,2.494720435068187,-33.09960663511703,0,Neutral,0.954
43,0.328125,-10.376583635090432,-24.13067513900785,-13.654510923933655,2.881529206096683,17.27905087846427,-6.490663796439746,14.959976518873015,-15.414769659200061,4.076123975855579,-10.560933278106644,1.4520128118633517,-9.408865429541516,-6.010105489520515,-8.5971375440167,0,Neutral,0.954
44,0.3359375,-6.953339333092267,-15.387386405038312,-4.189727879023957,9.910208931807881,6.898339763422486,-18.73368608505804,7.117475186834639,5.100732819111304,9.97758244767362,-3.366034605805104,-8.450135489634032,7.186818845004663,-16.577480400723257,10.058973288206492,0,Neutral,0.954
45,0.34375,-9.394625630217691,-24.68797761027107,11.095944054330266,5.0395633003253835,-6.854407289055075,-16.35416542493339,-10.425864484877428,8.510490687644864,11.646532515059812,-6.954194742748624,-13.10936245238782,23.484597155405627,-24.650441314045747,3.7716554675544702,0,Neutral,0.954
46,0.3515625,-16.189897951796958,-26.048173042467635,23.62718426628511,-7.477125377651808,-23.471160555296265,-14.340372301538018,-23.9715275146212,10.178939398996263,4.626795416084546,-16.38149620508998,-13.906790005894667,19.655822673630823,-12.848647330166665,0.6856212715177823,0,Neutral,0.954
47,0.359375,-0.35595140994086316,-8.913345897276521,15.463514721218704,-17.67157946196887,-25.43743382172297,-0.9892926108572365,-22.492193332639825,11.576299492239702,5.889125921049248,-15.827296186850793,-11.876010232211645,11.933816737466774,5.183038345787481,15.732777641162983,0,Neutral,0.954
48,0.3671875,24.68022865748641,4.432692743052013,6.205285737636828,-25.430091911021346,-11.738880526417994,16.332281074140003,-14.358987280498457,-2.030653951212548,18.450214832737313,1.2767244799339061,4.0925647630410715,2.7708661553302534,9.245565397518536,27.48470218738634,0,Neutral,0.954
49,0.375,26.185453737754546,21.402643038811707,14.75262566292791,-35.06164140896129,-8.57950313048479,10.260148528563416,-5.2684879002387515,-10.205764632435876,18.985321843526716,17.725417259259515,27.582121433160495,-16.96314061334396,5.024365205092801,24.097695550717006,0,Neutral,0.954
50,0.3828125,17.551746901936347,35.2712302621507,15.400757773469607,-35.623675357119225,-12.749731054383622,-0.5421147745348325,8.072707036164946,-2.126432661730334,2.7545461061566776,16.027021818327412,30.712982336229476,-23.279576436516322,5.566833607749981,12.310057417699337,0,Neutral,0.954
51,0.390625,16.5410404193551,19.494961360252034,-10.509670116177372,-13.832993101957367,-4.710667732613789,11.946581182052057,18.650736533225448,-4.983959006621421,-10.910217017381115,4.630481559470367,12.246964114176098,-9.106523161041327,9.623793037489179,-0.626348696176644,0,Neutral,0.954
52,0.3984375,11.05729605578181,2.5587257062861877,-35.00417759860649,9.819009265871045,6.939275849236305,22.525850829619923,14.277532223210098,-16.197048435364056,-20.303539517288364,-3.828296762160404,-5.329483217577666,-10.895750588910165,7.383737327012847,-8.803731994887144,0,Neutral,0.954
53,0.40625,8.648533840987064,7.332566099251583,-34.16221601021204,14.73757441532858,18.20561598692864,10.825531830146051,-1.8147389188383571,-12.269098180336805,-33.934317999661026,-11.26206568479086,-11.310564215723968,-27.873808836484613,4.020097123575457,-7.013343407112989,0,Neutral,0.954
54,0.4140625,17.680498922312015,5.582921591035095,-23.84588619012708,21.59261184713209,35.18036012649698,-3.39176250764933,-9.71109296413115,-7.408054627026447,-41.10935668672376,-16.106672700693245,-10.382658665015667,-26.91754065942837,6.953772372030312,0.6722713267782705,0,Neutral,0.954
55,0.421875,9.063115791773589,-5.909481114604532,-16.470663858302203,36.87143621457659,38.77667859976268,-19.69555811871094,-4.050847838888803,-7.907251560294606,-29.779421013633332,-14.952283567573755,-15.157973311503923,-10.162978809219444,-1.2380530545785327,-2.5341149542786487,0,Neutral,0.954
56,0.4296875,-17.526626273905098,-12.610936548111503,-4.662201645219217,31.478377508807434,19.6506798217769,-41.32413840714299,-3.3049929597610577,9.439079921278402,-9.71820934608808,-15.48443060620062,-24.54265498099954,6.592959756560468,-24.258066137500354,-18.329728872189946,0,Neutral,0.954
57,0.4375,-26.938272441392076,-19.55166566682081,4.866095087911818,10.507839219772105,4.371098864524043,-38.340157119265875,-10.028759613931346,31.547237807428633,4.092868356758533,-18.643666035722923,-24.312720414616805,20.927704477956297,-34.68836347866306,-18.579117111008042,0,Neutral,0.954
58,0.4453125,-23.49327661729766,-18.14388907237867,4.013161936853469,1.0341872122264808,3.0545568958821105,-14.509284290519165,-12.92312279305443,32.1948914624725,11.440379212719208,-13.507572756149154,-18.793421791451827,28.221728225885307,-29.49457106592901,5.896260892773691,0,Neutral,0.954
59,0.453125,-24.410008067623707,2.282372790091964,6.205796983301349,-5.494127920180234,-0.8249734601762051,-6.350593895821679,-17.813854216568235,25.308910814472586,16.818583066153128,4.136229154803003,-14.657927019128547,23.35929635739671,-26.30837303123657,24.2580191644089,0,Neutral,0.954
60,0.4609375,-18.06583517286483,19.75454444660763,16.124866765712675,-14.366331909165286,-7.616467838626129,-4.94921984115231,-24.187739713228503,14.323231543462521,20.021629506424475,27.062369742523035,1.3032678415311143,15.703440527331965,-17.061627952153685,19.274405440520713,0,Neutral,0.954
61,0.46875,-6.174946916372644,14.329636824557399,14.463196638110347,-13.417968091416714,-11.700549844345934,8.307023791220526,-15.211714011644258,-13.203719826165017,19.150476734405856,37.533832154331165,25.14872019099069,20.75141425845029,8.321740918854367,6.248284222647245,0,Neutral,0.954
62,0.4765625,-6.2830663618720415,3.323976478174651,-9.527878336502457,-9.157087208747376,-22.078892107373825,15.677481108332042,10.885562541454837,-30.62438345214778,14.143160846642216,24.65708755597599,27.06552260972419,27.625602575450614,30.04778520018743,2.06440565635859,0,Neutral,0.954
63,0.484375,-9.468598496110694,5.170464945474687,-33.1864544462032,-4.521419280437662,-33.84317917890038,17.89475491827746,35.051174735841215,-20.092470509883746,14.17652555361358,7.930933122704092,3.870453103144401,12.808789284337694,29.552542881192423,8.173372537125182,0,Neutral,0.954
64,0.4921875,5.123844520080683,6.599419101570801,-26.947438314125705,0.7311483762419944,-23.902148572346107,31.850148008236776,38.15365577680936,-9.604348507770556,19.75095655893004,6.0726538746218495,-12.364546482621128,-11.585292715608658,18.24354915800251,8.934833660395547,0,Neutral,0.954
65,0.5,27.987194817080844,-3.125573160198705,-4.455823079680442,-2.1142344189130657,4.036879617196728,31.779267448938143,26.53014587281738,-4.562058710760925,12.60301803059318,5.750224351978758,-7.3638152332890385,-20.386815882258727,10.33825302338027,-5.105405531274184,0,Neutral,0.954
66,0.5078125,35.30497728925731,-16.910473848743646,-0.11143091343145173,0.45980405555813153,16.79524843622624,-0.6072849068168376,17.650022617004858,8.755323056044771,-2.475057069203871,-6.044944530632176,-0.8364069966280268,-17.918546164563914,1.6270853422420348,-20.020320222777723,0,Neutral,0.954
67,0.515625,30.34969848056183,-32.950207721288905,-4.015409917580726,11.839914871975516,8.829386836094015,-23.6830000974599,6.296932167590029,12.419704939792169,-4.7892700424337065,-24.00237258480088,-6.60719793281545,-14.47370277205825,-8.679476285706091,-25.766383366811972,0,Neutral,0.954
68,0.5234375,23.451154419289836,-37.04634237674276,6.088116783645457,8.661564993603722,3.84936487610162,-16.226066429995676,-8.949541635738944,2.938668346987626,-6.892268046116361,-36.42401685302683,-13.267395813860578,-6.474025460407862,-11.892159346339415,-25.983585382958047,0,Neutral,0.954
69,0.53125,11.358910727239792,-15.27910742391834,16.37613944035779,1.69687661241832,2.418794557910956,-8.279657763172423,-14.024567770311329,3.6878571936677518,-20.596425651041102,-29.27733216405295,-10.325297409173118,0.9889569169915537,-7.3996979482957315,-19.665293367480018,0,Neutral,0.954
70,0.5390625,5.741399919503051,2.5562799200333695,22.33719953266124,9.8495408850878,-3.6324836903522875,-6.03166016392701,-12.862149053643307,5.335893026916961,-22.444637234199377,-7.538963550869632,-3.0511909631901872,-2.768750540546455,-4.92555977196986,-9.698246708984502,0,Neutral,0.954
71,0.546875,12.209836500575882,3.120502865265837,32.81431241608871,11.279386763536397,-2.5295788050421177,1.2529858130479947,-15.634439028174327,-5.485120208874354,-2.3852963974155,6.771042186322948,6.3153257749612175,-4.611769308867733,-9.495449004317315,-7.817370001985164,0,Neutral,0.954
72,0.5546875,4.5979447021598325,14.708653703688842,27.772610739936724,-7.0820041870770805,2.108016682360784,0.11415165555378015,-20.17158437380963,-10.936316644831685,17.073788070179244,10.157839300876216,23.142263443149503,10.99007277023867,-10.778325181698307,-9.377002246874838,0,Neutral,0.954
73,0.5625,-19.758491430498587,25.649521705695193,0.09071386297543693,-24.874182225080254,-10.183829643537802,-3.959593838189915,-20.33143790800233,-15.475175220325395,22.223271648443877,12.07900843071732,39.7159156557034,24.84452555561215,-2.3982975615681417,4.0751795700056235,0,Neutral,0.954
74,0.5703125,-33.90557192240419,18.89899636587007,-17.103038209255367,-27.7289394573625,-28.68011233661975,10.639934732439366,-11.017301091146319,-32.896477922070375,21.886412851060943,14.495026660327348,35.54058863734636,17.666369381291872,4.048850661751366,29.10323409125155,0,Neutral,0.954
75,0.578125,-34.457812732722985,21.279976656025415,-11.20081297222529,-24.757839035592564,-24.080274204660977,23.943109443917084,0.8714062655094653,-35.25059353511171,21.434469333701145,15.264556853819121,9.54671775271672,3.2435831301419227,7.01857041060506,39.54867346635203,0,Neutral,0.954
76,0.5859375,-26.789893805519714,22.33416886114423,-5.701589801854604,-23.472727412426785,-1.1780784288548314,14.166286916120239,7.91507614581621,-11.945033159757749,13.55596952940071,10.497626203668748,-9.448519983557553,-6.230013335928959,17.066774795086484,26.151200790044648,0,Neutral,0.954
77,0.59375,-9.421774869330964,-3.5376677065656867,-8.323421040379698,-11.867670330403211,15.193492880606513,0.19217366080892795,17.426172686178198,4.68024869212471,-1.8988739292088006,0.04132201514388867,-5.091038475089888,-14.01576984272345,21.30556527550619,12.048388256312808,0,Neutral,0.954
78,0.6015625,0.6899547588027517,-21.954646266997024,-5.381804279652377,11.24239214762623,23.28583386601408,-11.766766002318198,24.00259435764317,13.809204409962245,-12.574623916899004,-11.297728918332364,0.25630795333281853,-16.732681035244465,3.2877959285562115,13.61845663758077,0,Neutral,0.954
79,0.609375,-6.215431480429024,-14.619064365855554,4.113688749093903,27.528443992946475,26.235327576734626,-28.16542052222575,12.644830434938843,31.610801780127826,-12.54836782366046,-20.1119971446535,-10.740344215582237,-14.157391831936305,-19.107592355304266,14.808093101178798,0,Neutral,0.954
80,0.6171875,-6.373766653258406,-7.6389449023357905,12.476166188381507,34.93698275272618,17.886656846929426,-26.48438297909124,-5.613740134448159,34.867917270429935,-11.59010448979938,-17.91562618990425,-19.024622617361242,-17.537907992332663,-27.248249675729596,4.7615303617063205,0,Neutral,0.954
81,0.625,10.858607870656124,-1.7949418689377006,21.028400132629177,38.31509383119166,10.812203954911682,-6.013647605653978,-12.699421571250394,12.008230864621801,-17.366905513988094,-0.4028730710840396,-12.265552785628572,-25.647562922082912,-27.95981489259497,-7.431584134031997,0,Neutral,0.954
82,0.6328125,23.3326517990763,4.491670246427251,27.29412530476767,28.081076135393467,18.144865248937634,-2.6401909221520845,-10.651934490646402,-7.289788437347018,-20.958252610374785,14.14578366761432,-6.78749558002518,-21.497147314383163,-22.764047430294166,-20.922420394558483,0,Neutral,0.954
83,0.640625,25.79582720871083,-1.682736733464299,15.102161926641546,5.416052851313156,20.946648928375236,-10.292111102924785,-6.675152681243848,-11.113869449448586,-19.705275242353817,11.982005550384336,-1.7204843954121911,-0.6026921600067032,-3.985188123860143,-30.610667099814954,0,Neutral,0.954
84,0.6484375,29.64424530860877,-0.9270348823353363,-16.95093624044865,-10.632857924992742,1.9425594239488344,1.31576155809854,-0.39244019805928276,-11.85497541371196,-24.460428454810078,6.998196544232247,16.40095777045147,19.32603274831291,19.522517841144712,-21.064332627744093,0,Neutral,0.954
85,0.65625,21.81128214709593,18.65580116602706,-36.343910003016894,-11.5562239026723,-21.845292488115906,20.380630042172637,10.854825799896702,-7.17766208363053,-27.872957711764563,11.954155824826202,25.943221425160313,25.87941300918194,29.359973187443842,-3.705055916490309,0,Neutral,0.954
86,0.6640625,0.007387343158226756,23.643320138068834,-24.470405613606747,-10.411229557263013,-28.807198250683832,30.423533821526696,17.93629340780938,4.073263024703703,-11.876970830100067,19.925620958246693,8.407401856745986,26.029525377661404,24.557637439121777,-3.2575499664190044,0,Neutral,0.954
87,0.671875,-6.621105276143359,3.14267036675858,-10.838349466795744,-17.179062268501397,-23.66343424215131,35.27259972663744,9.544672552867802,8.915950755709506,16.69881085391398,15.62988806662583,-13.531913029848031,24.42935207374137,19.953528284865023,-11.940559701192221,0,Neutral,0.954
88,0.6796875,-0.38123655200947315,-14.702650012553619,-16.702737745965244,-18.897288145368947,-17.76527472719774,26.06528947433134,1.8193208895156883,9.363564020952415,32.0342927816649,-6.890650440010133,-21.772690742509987,20.40625993783327,19.541222354480077,-6.2246105441882165,0,Neutral,0.954
89,0.6875,-4.932211545969625,-21.547423011215304,-19.67803415807587,-6.4106175378539385,-8.498484200554005,-1.0550620936165669,12.38264090543641,12.679788220356901,26.692954160355377,-30.772373070204537,-18.340955865359017,18.827784649932077,12.154841797580705,13.12401685966796,0,Neutral,0.954
90,0.6953125,-12.3204738625209,-24.616611759830594,-5.994618284687649,4.8468401691054055,1.986340602042395,-20.98874418748294,21.31175431130024,11.038826916779547,21.621517868627905,-34.0428989108167,-12.362437670187855,16.416553475104052,-3.1883909745960604,25.474266773023025,0,Neutral,0.954
91,0.703125,-18.457845306613354,-17.697194359353713,7.9055819252047685,4.086042850642192,2.961999354946974,-18.79643528776021,7.826227449662708,9.017712636254828,20.055749140173106,-19.437728557527404,-17.221299494919872,0.8653113642262058,-9.956821083631766,17.625149649280093,0,Neutral,0.954
92,0.7109375,-27.955141794231153,-8.842515647670353,15.840704546119438,1.9353289170307961,1.4171987875241185,-13.056846219142095,-12.04989954088349,12.916724655430237,2.863257211383543,-8.622825988645435,-23.805155294489488,-22.806576468332572,-6.614367857438616,1.2596112097419665,0,Neutral,0.954
93,0.71875,-20.42990741205329,-14.33060601308465,21.36704687208762,6.145366140340853,11.809677230667099,-15.280236804096472,-20.296881527497938,1.0606141484955378,-15.22808674069264,-7.521590745940723,-14.658376980117664,-28.695823030189946,-13.930385701132476,-3.04704170156333,0,Neutral,0.954
94,0.7265625,1.9869712396436556,-10.747253827980535,13.27912414589876,7.422227939652311,22.360791495339107,-15.602790688295922,-28.402249321111753,-25.271845229400427,-12.36393150169691,-0.2245379296588758,0.8642124982256851,-12.43964638908467,-28.78028363322713,-1.3816833834071813,0,Neutral,0.954
95,0.734375,7.724827050977461,17.106431049070203,-9.654181981447179,1.5912663254520427,13.986860225045671,-15.366166228028195,-39.272384832167795,-34.1329332119133,-5.003947006234453,15.060222313684076,12.76080782450202,-3.4728531734055674,-27.206097122791803,-6.635909854943712,0,Neutral,0.954
96,0.7421875,2.1540830042763592,32.89777898100079,-21.800214029937457,1.3181385486168196,-3.508901494367907,-13.052287009274076,-28.02420426585727,-32.61830926729249,-4.268092497752314,25.387731092409275,24.767738119877375,-6.848092621273104,-13.98424657901096,-7.931779394685934,0,Neutral,0.954
97,0.75,4.893063059540506,27.44365698141656,-10.6600344746865,4.973972617066193,-14.235634481868711,7.465805234930596,2.0824203977515103,-31.517785913991617,-3.239317731521747,30.271076123158572,31.318882963177863,-4.4189993426750185,-3.4121278945154008,-9.062744961854953,0,Neutral,0.954
98,0.7578125,4.057153837044803,22.058088325454964,-0.6971746438899806,-6.591403267661793,-21.6599051195652,29.329114910025307,18.075983166792973,-7.2535022688764785,-1.9595753574097996,26.509164565428414,19.561959821702004,-3.4622757058220746,11.944823799659812,-22.2748615828543,0,Neutral,0.954
99,0.765625,0.21181214953654903,8.31027353863859,-7.036587211202439,-26.472990929599895,-22.156543968127412,22.420844703838164,18.77387205136557,19.96388857210616,0.22407742709061262,7.160034792380956,-5.516340367355007,-1.0505813229439789,30.10563372708912,-18.682279553742738,0,Neutral,0.954
100,0.7734375,12.343000956911421,-5.950839457675926,-5.973013309854454,-30.48791302364255,-6.4024539351323035,4.333807118429998,20.256909194586875,16.226630972428314,1.5557429344770877,-12.601812407650224,-16.438094316414695,18.911983784343363,31.55873234279362,13.859373789942895,0,Neutral,0.954
101,0.78125,21.671555449730487,1.8084635369310522,14.26456383545605,-22.38840204985364,8.355870540214204,-1.704704286056439,19.205728912349592,11.53599597821135,2.2135934206640733,-16.650462068565886,-4.546531898110204,30.059980226903996,13.678563811507388,30.72717405284038,0,Neutral,0.954
102,0.7890625,4.370880275351703,5.529925183726462,31.994537166870895,-15.717482812979943,5.9976932046248965,-6.434546471380246,14.101257318183194,14.16296344441596,13.911047551798076,-11.22462834467143,3.6869417688581123,9.612582020154353,-6.049677754539445,17.465324587088137,0,Neutral,0.954
103,0.796875,-14.92218695230915,-12.600286299090135,35.68600632882967,-3.042126136199355,3.874494469126213,-9.193280493553761,12.374545732859964,-3.8916572505260367,30.91729825959665,-8.004024291644676,-3.034909125934918,-13.129219816190236,-15.198390855918674,9.303900243881207,0,Neutral,0.954
104,0.8046875,-14.295285719505628,-19.682264438110714,29.597913930261665,19.982803010077973,15.518209389216226,-0.8267761253328283,13.553473958678534,-16.711682442087817,31.693661169987195,-13.374749419948964,-7.193162053315401,-14.768028911676726,-15.47563358853115,19.1027692551995,0,Neutral,0.954
105,0.8125,-8.110011550124488,-5.586154670643679,13.699834328798257,39.176745939848416,27.121693658353433,-0.950232069883506,7.771897714788527,-6.7010047986591665,18.606575717461027,-19.697734018939418,0.5068260827796758,-10.619498327631819,-11.474646719324557,28.62377751226158,0,Neutral,0.954
106,0.8203125,-5.600947682619396,8.205385484578056,-4.8837906552222945,40.70989766776316,29.158040117750378,-14.051667807808524,-10.785251922176856,-6.1256692468955,6.2684227366017335,-7.154918259925129,15.368750890106135,-14.173498280642901,-1.9566568553349213,21.138545292735962,0,Neutral,0.954
107,0.828125,-2.1738481908564067,19.080101852053375,-10.73315698351113,26.40500099084529,25.181194535287162,-6.816557082679402,-28.6480735926662,-8.39098494402315,-10.686018758953562,18.177220781934572,29.4520321751348,-16.67051192178673,10.937803701262194,0.8447309157412026,0,Neutral,0.954
108,0.8359375,-3.944043705510648,20.681928344491794,-6.170600792744793,12.701446530309052,9.705148491782571,19.29535287560671,-28.914239904027184,6.476826705669139,-34.90956337026987,25.4461620113783,36.30856906250076,-15.711558787302486,15.207337302052169,-13.116706647665616,0,Neutral,0.954
109,0.84375,-13.68709094885866,2.941212590977924,-9.419473115432385,4.740740168300503,-16.28259899090572,30.068545268426195,-16.159952043734002,12.707141860049845,-43.22713717924081,9.18646189144819,31.723503883541508,-18.95916903759845,9.242401067315578,-19.939751801172907,0,Neutral,0.954
110,0.8515625,-9.97304765656786,-6.999517598146868,-20.193060235574006,-8.995997517653215,-26.693706585024756,29.12982702715231,-2.6969856346385144,6.66411649074866,-26.678279287668666,-7.673008204592768,8.870147482377263,-12.39725615056489,8.788090632299282,-26.210057523551715,0,Neutral,0.954
111,0.859375,11.218719894200179,2.1685316567015605,-17.637410946462204,-19.437424277055015,-16.14567934948191,23.00955539064206,10.27039829989409,16.830919543464418,-12.53182422917097,-9.334165438153523,-18.515732006151865,14.15158816695309,14.152766675471028,-23.19396217292413,0,Neutral,0.954
112,0.8671875,20.75206882578312,-3.799153861081906,3.9089457081687313,-10.629041399863334,-15.290504928669886,-1.471842661827422,19.88968593744654,30.290214526995975,-13.487769835781368,-2.654056728331583,-19.79187241966452,31.092131309840685,10.88591723194882,-17.916250451864148,0,Neutral,0.954
113,0.875,16.845855552870276,-25.99370959340618,23.20249657121357,-0.8762646473833606,-25.781137780912363,-20.48353028332255,13.82596577808473,22.673945558440785,-10.15206944628575,-3.930552472007998,-6.955947928004258,23.03709824120547,5.358306049068581,-25.32070500555568,0,Neutral,0.954
114,0.8828125,15.457520065415647,-33.97300337088295,20.398329120861263,-6.130891795031065,-21.25433751430491,-13.004644602722344,-3.6927018071802196,10.221281365298148,1.0218380929708208,-12.921172027643898,-12.087317601524797,15.64810404798482,4.361923021738857,-27.37663719262332,0,Neutral,0.954
115,0.890625,8.207969774275675,-27.498673886704026,3.8785927429804072,-9.419747982441589,-9.170001460587514,-9.805692891511681,-11.29080238922742,-1.168996272718025,2.535966651818941,-14.369489932057105,-23.537415600418054,18.784853845541384,-7.2559713980019565,-4.0817087687909615,0,Neutral,0.954
116,0.8984375,-0.8689962694022533,-13.870852175795216,-6.963562983699832,-0.7897059533791078,-4.467163953371207,-24.85147736258609,-7.398867801310024,-24.027039266261895,-3.6329502385902526,-2.8262713915263453,-22.486813844672593,21.15442950408978,-28.49105947216377,22.59103190151005,0,Neutral,0.954
117,0.90625,2.353220802655838,7.595176491128913,-14.432703189340765,7.461296102926637,9.34362924598001,-30.821223616279966,-4.801447238326473,-36.311619804178314,1.5872479461340656,13.089019368791426,-11.996636133455265,19.36926373620046,-37.51830476267733,21.68354693687514,0,Neutral,0.954
118,0.9140625,3.163842462025883,20.435423950279887,-21.777904841078723,5.91568424638651,30.09429937562677,-19.677680462745826,-6.325888569709169,-22.57293762647084,17.3739515668161,25.427651895988397,5.952332143937638,8.231547879609609,-28.711549378489444,6.353493771281186,0,Neutral,0.954
119,0.921875,-12.051030986351442,15.285471450613016,-16.585683423678216,0.6611507352276507,24.91117511569457,-6.585419020153099,-8.280871732406892,-7.9632287721184545,23.22290287384262,31.062685149635854,19.994122821740763,-12.958605740745776,-13.772212643014267,9.35678361893972,0,Neutral,0.954
120,0.9296875,-28.54501798254698,12.032678862329577,-11.79499164313096,4.192941853809353,-0.31153539791852936,10.439169445301644,-7.229841756671252,3.6800532971909066,14.60548807276835,25.04956073843052,18.580164312981957,-27.887773205209008,-0.0350397273961664,24.723025719746374,0,Neutral,0.954
121,0.9375,-31.696947891063648,22.43803282806211,-25.320683052533102,10.01309085004171,-6.81911211830539,29.858514538323657,-7.9648122057317465,21.264129751526728,5.209747125892449,8.022015430166462,9.065786660316329,-22.72841619007778,17.043676527930092,26.37212126855377,0,Neutral,0.954
122,0.9453125,-25.270856675001202,28.119875804053734,-27.000433758418573,-0.23828762638659073,1.0750996279201357,27.88733631937412,-6.680336939856056,21.14418878634888,-2.6789718468551174,-6.471468425420823,-7.682208730958778,-7.836103536620072,34.85303101238705,13.469872526587764,0,Neutral,0.954
123,0.953125,-11.623367886357508,15.05874288105474,2.5668759012879265,-14.76380019208439,-2.0475561086636684,10.470022384038025,13.013555574647846,2.1205336212968238,-15.150602123662155,-9.09374170584616,-28.154245123312975,-8.187085867704784,34.57536401803554,-1.197199720493531,0,Neutral,0.954
124,0.9609375,5.660184388387799,-4.905071987495747,26.907662794797197,-15.835229883397428,-5.90128849666907,6.768053169089964,33.95215556748084,-4.510731536381258,-25.02294645546299,-10.403386982626575,-28.96650055896129,-19.07813584465343,15.910567768843519,-11.46014230702422,0,Neutral,0.954
125,0.96875,8.861680385757934,-18.85920070128721,22.407809058946476,-21.488899811299277,-4.352310068969841,8.554296318008165,31.085133000886735,-5.195434360901894,-20.601082726177157,-25.674479621225718,-12.548705144540023,-11.73780630299035,2.2455467143702914,-15.692694660494933,0,Neutral,0.954
126,0.9765625,3.136539286116734,-20.563636936554264,10.06415314629999,-32.94662208282142,-11.095625801261907,2.2458503985020473,22.302975209984872,-15.569572838089654,-3.79579466920039,-42.16724670733315,-11.186144722772983,6.863695045847993,-1.9374452882285347,-12.279969870238094,0,Neutral,0.954
127,0.984375,12.244921682901307,-6.301339562926438,6.214973768036327,-22.01913028488903,-12.549403101589933,-1.8355358471156717,16.02516743468329,-15.940424341538284,11.858542120086444,-30.949092226060003,-22.991302479384146,13.260436196222212,-10.129913728012106,-4.778171906552027,0,Neutral,0.954
128,0.9921875,26.09144658446313,4.853782375330163,2.068238142260872,1.2301163403500373,8.857267409912481,-11.852146447117,-3.9956780537732697,-6.84959556326718,17.530412584729607,0.6137161306175862,-15.428251932119073,15.313257150502851,-15.808933980972583,-7.588141162598692,0,Neutral,0.954
129,1.0,29.38048431092286,-1.1024590039868425,-4.82851804448594,13.259771495357139,31.3926574893843,-29.198739384679882,-24.964232692671622,-9.054953286400012,21.284467135142965,19.9726958721786,7.80901693713896,16.777409544536503,-5.471270341726566,-16.13428319598158,0,Neutral,0.954
130,1.0078125,31.09442073127948,0.9541382862272605,-5.9492125713544475,25.09981932941475,29.705543201663183,-18.7977437380136,-25.282227354189224,-8.032339488732273,27.097284181999168,20.75695157077883,18.667923515009836,1.7769814625370275,1.641485942977552,-3.435189844574527,0,Neutral,0.954
131,1.015625,23.778073131934356,16.23277310272963,-7.34801149948847,39.407152169014225,16.09768852043331,15.202420712189294,-13.31210733323135,9.357347770042683,20.1731740512133,16.498630038020337,22.602538955634817,-16.773868052535775,-11.070543948580049,21.88275217845051,0,Neutral,0.954
132,1.0234375,0.24730834174720107,19.236193837177385,-13.686041557289972,37.401453527188835,11.977656342135784,23.95438511139991,-8.756559604873576,21.99924932817844,5.968747218973525,17.879463238219824,29.65189129761907,-13.103674997515729,-16.48127740998173,25.318324164276827,0,Neutral,0.954
133,1.03125,-11.601462318371318,14.32554808042817,-6.689719666955121,20.31553640548892,6.608816482610179,10.767812274158512,-15.851439464561684,25.568763130191535,7.737184632237878,25.500737631960238,21.738494207326884,-5.3497133456480235,-0.7253123240856976,8.181163366108574,0,Neutral,0.954
134,1.0390625,-5.9487548624046855,4.578196565686326,20.764328729669597,6.141316783114559,-8.756813264507691,8.443999536912322,-18.597078152573648,33.53187373810082,14.265699172089839,22.592046522394966,-1.9408096947570908,-15.547668232066213,12.409671202247265,-3.1470367466306226,0,Neutral,0.954
135,1.046875,-12.603585743378147,-22.474631729227227,39.03801168366452,-2.4689025325949188,-11.326935138038504,4.028152972618154,-6.7932816011023,30.403836823621976,4.634312245230634,1.798355059559718,-15.450049890517173,-24.388493264747577,13.710913350123526,0.2341233594891694,0,Neutral,0.954
136,1.0546875,-25.425499480164724,-38.75772848918019,27.282710898763426,-11.356477521784978,-7.294732179272598,-7.621945312445563,7.335624905544387,5.174844074471726,-10.233360909984139,-17.282910065954475,-8.892454726947353,-21.835331653557265,11.31857562225867,3.255339261528573,0,Neutral,0.954
137,1.0625,-24.197064676979032,-23.170881944589368,10.17188348824612,-16.151898800411868,-27.394272368094402,-3.6682379012365685,17.850426641920915,-15.32102603997018,-17.3375438224588,-22.16426764489194,2.0224901246637277,-16.812007225336952,7.360191243011716,-5.866512230843577,0,Neutral,0.954
138,1.0703125,-28.10939878290945,-10.347506329503457,7.716944990576475,-13.260030044615952,-45.80575254434025,-2.9054324335706934,29.88782603750474,-20.622678539105944,-23.89055085257919,-15.808037206776413,1.8451359707120563,-1.5997136268312673,-3.0117656325825117,-19.260624191435863,0,Neutral,0.954
139,1.078125,-35.593211124972626,-14.337979190703274,3.9092459301458478,-3.8711062345057035,-27.42940339859506,-25.039498779831185,32.35531752781682,-22.262734756593428,-35.592679824180806,-2.6145731483340247,-3.5993093658773017,23.266207893757716,-22.052604037854717,-28.797431703402008,0,Neutral,0.954
140,1.0859375,-14.779972628933697,-9.291057480554693,-7.562419171742372,4.1984511359739045,-1.6798838181286508,-35.75197619885727,14.42719479768046,-10.745433881327944,-36.28414268545072,6.557175258068071,0.05547641999839936,35.151949886997315,-32.9455787494509,-30.182765865064034,0,Neutral,0.954
141,1.09375,13.127295187831121,4.797693817542078,-16.40226058861261,-0.6274412242856221,5.279585025953381,-18.956488371181017,-8.45308360715825,10.671458774562257,-15.039201464053852,6.734091256153464,13.665427091048267,24.26034195488758,-23.077931314100272,-16.207501960397405,0,Neutral,0.954
142,1.1015625,12.239342106489808,15.992824521333258,-23.833014289813548,-4.23039583098209,11.593161900795835,0.865595336334952,-16.616962565497815,18.46354153391722,4.134933302051969,2.5034440549104424,25.881886416424187,12.29664648807288,-7.573538043147548,4.971843475978681,0,Neutral,0.954
143,1.109375,7.296734801370938,32.38359028025812,-27.259966006887268,5.649744338471413,18.227104470506145,17.21877863472077,-14.235101810758508,16.595897124626795,6.789579278683307,-0.7672696793413376,26.40763049377415,20.76962881102568,5.784490281543091,11.041681254318362,0,Neutral,0.954
144,1.1171875,16.127922058200703,39.26172376428008,-12.822159017255988,6.475587227448073,9.39571747197537,31.14727950447746,-14.105882977399146,10.2980471697591,11.455603368826033,7.6193678835740375,17.76975886897403,30.42789705184729,23.785217356017082,2.1779240392064345,0,Neutral,0.954
145,1.125,17.663906684884477,15.301174448431091,13.749826773401592,-2.0391489272695686,4.366847268899807,27.619501242244553,-7.132765975533014,-6.717362837728699,20.882361965178436,15.790561594457806,4.206124530479508,16.4574610728952,35.41288919520955,6.974468329715705,0,Neutral,0.954
146,1.1328125,19.944086796502265,-7.823295669818605,22.998949879349823,4.58554361943712,18.64149367739275,14.05656258761757,11.143691606384936,-15.344364656417017,17.365532301580835,-4.839533206962551,-17.16020236469792,-7.077596985699132,28.38592134411644,31.822104950615557,0,Neutral,0.954
147,1.140625,33.03941841250884,-6.232621521111193,7.318107728307571,14.112147015038234,18.540999862608025,14.843640332042144,13.873283958641018,-8.087885294968036,1.0585681728510479,-34.87433510283535,-30.63157348901368,-21.206880077736383,15.843789132665183,42.868808924886316,0,Neutral,0.954
148,1.1484375,25.947994904525107,-5.739854621800957,-4.8347294211645595,2.244896852492263,-8.787632534796533,18.03480964254525,-1.4284979733399457,-9.52609166637556,-7.887473906721557,-32.24213474530727,-19.150482993930794,-25.68215175702137,10.366138947693862,25.90641809904212,0,Neutral,0.954
149,1.15625,-2.48487441321932,-8.739260797404734,-1.2996840969661538,-18.612243723405673,-24.47533757931225,4.4624575582997625,-2.362190727998178,-20.87539933011685,-1.929174450658814,-6.057878946908165,-6.561372234658522,-20.946714286094014,4.616378204605465,8.813001473075953,0,Neutral,0.954
150,1.1640625,-14.564817821989728,-6.906890226212032,-1.461106517405222,-24.574188273858006,-17.502042293602354,-10.448296512575116,11.031449030042335,-23.779745864886536,-0.012862363792744802,6.584168640339942,-14.098920962973452,-8.32785968941715,-5.554423628099268,4.655301055882471,0,Neutral,0.954
151,1.171875,-12.1002940626643,-15.63111385199425,-12.388111248844034,-21.298472850899778,-9.32926108685775,-20.431901059092485,13.102895117937978,-20.3133568204835,-8.836383160589042,2.545230189555006,-21.068607215458137,-1.545246387579681,-12.244470175367233,-1.5161907473940008,0,Neutral,0.954
152,1.1796875,-15.24151692832548,-13.137949864980405,-23.466188410373206,-26.099504329008695,1.3499131842302363,-31.968566261522163,1.6962156925524998,-15.492991766814354,-9.901471710738324,5.606711520000113,-10.946277230298303,-9.530818501880901,-14.253391356101687,-10.036698194673237,0,Neutral,0.954
153,1.1875,-14.227304229107407,17.065673787037145,-29.97889422848794,-26.076118543341828,14.634307220675062,-26.83289079442047,-9.494795602915511,1.253210636918344,-4.570882383240475,19.544956180591733,5.802270854059651,-10.330991799231407,-19.30141249754812,-13.084887620099856,0,Neutral,0.954
154,1.1953125,-12.521204718543913,26.74502094124763,-26.728916541772712,-0.6327417125883388,14.477803822955336,-2.1945826334081557,-17.257769109244425,25.513576119383472,-9.524243314123959,30.386278832739123,16.238590963169067,10.194356935469704,-27.39682045005808,-20.698702520174113,0,Neutral,0.954
155,1.203125,-23.89602157738856,7.75379668818371,-7.259144918775956,28.4918257156157,8.146928846665194,9.776763468980663,-28.64506890755775,31.847915273769438,-13.741031518003366,31.326607626660227,15.556498449937756,23.14753271007659,-25.125803556770574,-33.60872853272433,0,Neutral,0.954
156,1.2109375,-25.343081706434553,2.355233836730959,16.698762912907647,32.53010467415432,13.025931732019293,2.6402828583502935,-36.036166097628495,21.289104096294178,0.2996842842956722,18.58004881003917,7.691401381307003,15.025689947210608,-6.492610755997357,-29.828627761094772,0,Neutral,0.954
157,1.21875,-4.783593826752991,0.11046429383976908,24.771506797518878,30.750020325168837,20.936773123849413,0.8786833811638204,-19.492088029288773,10.991284227965075,20.19966352188983,-2.298281968477844,-1.6720542343510336,5.659770424175482,10.705148877997532,-7.582277395671109,0,Neutral,0.954
158,1.2265625,11.274105827380804,-13.727422011256888,14.760753218205004,36.79014166031208,18.360097020197816,5.58722039903982,11.995567185220638,-6.954595918680933,30.414821131822766,-17.695699544829928,-14.309562009420738,-3.9267499726068644,16.644460746832937,5.391560154267329,0,Neutral,0.954
159,1.234375,15.77025978082187,-14.262951485180736,5.819398705703334,22.95734052345937,6.364244669195321,4.230568005558423,28.81612436557188,-24.737225546850695,36.07397831873073,-25.621033225309326,-25.141452486776817,-17.729058088541752,24.155964737089782,0.03026974012656236,0,Neutral,0.954
160,1.2421875,18.256060198518252,-12.99097585268532,13.436851814486168,-5.417402601022412,-11.714595428887067,5.1989465994507515,28.22946906650435,-17.07373165086386,37.316663203314924,-25.995459871743726,-18.675563156070112,-18.432925257715606,26.210943772006036,-1.735208662944072,0,Neutral,0.954
161,1.25,12.708214784217462,-30.072671412813587,19.27582062810484,-14.090514583437473,-30.693815063522806,4.46384568928617,25.58303652923842,-0.31095522769873307,25.407170495088856,-17.747082243574475,-1.7167084956464223,-7.627661072005576,6.440918740906325,12.538657506194976,0,Neutral,0.954
162,1.2578125,6.024716728144321,-30.118145090134874,1.1659815859284652,-10.81701623497746,-38.39969520332777,-15.682033390297399,21.66443870115448,6.490223025178362,5.182658414190603,-11.017001608391475,0.420097344249164,-13.930383470203386,-15.813376359093889,26.26132587007373,0,Neutral,0.954
163,1.265625,14.048966167560756,1.6366662706806583,-17.768604696810264,-12.36994853558802,-26.603453350917633,-29.622105817423076,10.98012405849849,16.56923497697817,-12.42070666666775,-10.502700111153874,-6.0534835721199185,-32.046000745550806,-19.23102507829069,19.47202689479032,0,Neutral,0.954
164,1.2734375,19.625446422092217,23.02719731908491,-15.037075377667938,-12.608901204582821,-6.465250052933974,-11.361703605228822,0.8665555501771229,22.653282934916362,-21.13699776588448,-4.316586914049295,5.45171797533201,-23.432964250309332,-14.161389985092942,0.37255158477317574,0,Neutral,0.954
165,1.28125,4.8769123912129935,21.466815690305598,-6.686155408463876,-9.280147442625909,-1.51911956611099,9.86275300225856,1.0883590661067661,10.385437251139148,-19.094443895463193,14.528339830578854,26.932749022288593,5.781104700801593,-9.492836091409117,-7.477572902803171,0,Neutral,0.954
166,1.2890625,-10.498886420105336,20.56237173909708,4.642835312721302,-1.2338407426615552,-7.4111014731568705,16.595614332301885,-0.9265233290065455,0.717509737710907,-16.02755134381412,31.08015128394412,32.95407954173439,18.935174526805874,1.7395542103055994,-5.156244229730511,0,Neutral,0.954
167,1.296875,-15.472269389229794,18.312961371530854,23.944154726210535,3.1466074722679753,1.8454692549204499,20.578569420765433,-20.83907356306818,4.6674156141928655,-17.52295780197386,25.75733180227707,25.28080784315971,22.46279050907993,16.10947918261119,-6.827393431917507,0,Neutral,0.954
168,1.3046875,-19.072344166894418,13.0687007761457,27.94166617658615,-5.502221725086041,18.518935730327247,16.89512362346895,-37.582527724136106,2.41086924235026,-13.326103831071565,4.153420251350042,15.946302494749503,31.08301724150063,17.71306681267853,-7.4190746450416825,0,Neutral,0.954
169,1.3125,-11.686690901034071,18.949088726407954,13.813364384105203,-3.66424178261153,24.54962870247605,10.972005980005456,-28.661300080276128,-7.475449561274895,-7.798810604848596,-7.9863646346073445,2.841865469209119,27.810742840279673,7.935736919139262,-5.251269968394231,0,Neutral,0.954
170,1.3203125,5.26596095446311,15.951615728575216,10.12273976282829,12.032495875790886,29.30454873257133,16.843331533438704,-11.705646677282814,-13.710861809004722,-13.200820871602934,-2.0764309101059544,-13.45227337109764,17.1537931924998,5.388963659156614,-11.176045272935324,0,Neutral,0.954
171,1.328125,5.4611911565880185,-10.984545918983144,19.7147622148077,8.780779526064395,27.124784432238076,17.529795185212393,0.06319363505727754,-24.056571081454624,-12.809633856392685,1.4698863133253934,-17.977476578350753,22.28528674528804,11.633772363254094,-13.059537297335002,0,Neutral,0.954
172,1.3359375,-6.021777398053887,-24.945524279679603,17.723312416360226,-3.0682478226800716,2.96904284586166,-1.1444012916603499,16.676704736577715,-31.703446596529048,5.725488104917563,-9.340844939614296,-4.943918547437515,24.329231268317333,9.730943109325658,7.803088535011529,0,Neutral,0.954
173,1.34375,-4.144744508172613,-13.012437206567348,-6.9101611248344135,0.6361270018597065,-19.031661732997364,-22.940859768357384,30.515056997517814,-18.06383161001313,20.08475010049125,-17.89676145343246,5.609023548809084,-1.241631114577629,-2.4073838603988187,30.898871890670193,0,Neutral,0.954
174,1.3515625,6.524479923408621,-2.2797878771181503,-30.75308258551986,-1.5816169727730889,-14.455144135590071,-32.41545548346467,23.251918654012293,2.0187350234303807,18.602831402188215,-10.893287190440892,-0.8935055699459419,-26.780836895525727,-10.101549637176163,26.383651543425362,0,Neutral,0.954
175,1.359375,15.650001273749112,4.6542687016855195,-28.610596871879977,-18.78502289211518,-2.4330286855944263,-31.282032675221544,1.9018663219417364,14.45125334725946,14.28915917561703,6.787527774220704,-6.31247103512367,-26.255081164638625,-15.836102081324338,8.488569635385932,0,Neutral,0.954
176,1.3671875,23.46827359903524,8.800694617039609,-14.693472827465918,-28.538076336825274,-3.718965725634108,-22.159134828927645,-9.06057872256379,26.484449016400305,9.874833246180767,22.373195289355344,6.920150939753631,-18.13532873188256,-31.620075292259806,8.06591140286084,0,Neutral,0.954
177,1.375,18.302832976390306,3.0083184653627733,-7.0572520366193014,-24.932416068457545,-8.19605432942434,-5.4211568869335345,-4.322121564740256,24.98058727375541,-1.4270232139381387,20.249806710862654,23.072565644919592,-14.822624956554279,-39.95803734043582,18.4961709725571,0,Neutral,0.954
178,1.3828125,-2.7028765328732316,2.9831246062844308,0.4473299887195341,-16.62650340009639,-4.017899330159549,4.109595628800427,-2.8808453976782897,2.312595472052844,-18.428186097455782,6.590904508407629,21.785450728324605,-8.463507288218679,-22.899071655194575,13.308507456437967,0,Neutral,0.954
179,1.390625,-15.414159746907568,10.708483437630612,4.900915615339341,-8.202178938848906,3.4138658558528863,-0.2014752233037327,-9.399322543966898,-13.800103714844594,-30.029411861838888,0.8240708836929257,10.517393887508213,-4.520132194347817,0.4246048084134606,-5.469945649695903,0,Neutral,0.954
180,1.3984375,-8.951280414320191,5.462427518098201,2.693861783567508,4.33283487631866,11.061863547348956,5.318728994340647,-8.341972567714407,-16.097004997783273,-23.643375529537167,-4.464930328945309,0.029016280770213565,-7.95281912504535,14.626470633590085,-19.356363879235992,0,Neutral,0.954
181,1.40625,-3.697136936319289,-9.516859161732828,6.218428706214848,26.071691746926504,23.670374906879523,23.28996915680548,-1.0904400792210203,-20.627507549210627,-8.786702182636965,-13.885856142385089,-16.29322037266292,-2.682619347562842,26.032563416355035,-29.790703610513226,0,Neutral,0.954
182,1.4140625,-9.977519817882357,-21.192103162642272,12.388796552877196,40.22857328783086,28.93534388436226,26.232283690701156,-1.1364104504354797,-13.365110800756911,-5.1342168567295206,-14.96581846988376,-33.17005351605909,18.733379337080876,33.28439669696542,-37.18528979528317,0,Neutral,0.954
183,1.421875,-15.68236291416706,-28.632693308977345,2.5394732184814317,32.46593335089912,9.030292190602474,17.209487028060593,-1.2882746513348797,9.726217692920434,-0.6281010634675037,-18.5541582710232,-31.294917796946564,29.733193105263855,27.469208130331424,-26.639030818012387,0,Neutral,0.954
184,1.4296875,-20.733940922692806,-24.787071532160112,-22.983805239696768,20.764345353382147,-15.279974567154174,9.447290652576243,12.227223753496084,17.16329066342005,17.158833883971802,-28.36936660004675,-13.259134127433157,10.721955484768689,7.1619160094196515,-9.334705525490154,0,Neutral,0.954
185,1.4375,-24.537810020481924,-8.871460842368712,-39.38491094569709,12.383317944874026,-17.160243578662836,-8.66611416128875,28.29650259950078,13.847386166313203,21.40640969846658,-19.365976825270817,-3.2902711242748186,-10.718487254690743,-9.608342083242805,-11.38069637847449,0,Neutral,0.954
186,1.4453125,-8.743739194428036,-0.39211780593716417,-28.998418960221855,-5.14141669171221,-14.8378844254729,-23.77900738483641,28.892467821321866,21.841642328494345,6.77550771402272,9.13172967367008,-10.162774130152716,-11.582309525600603,-6.246201534065437,-18.417559443468654,0,Neutral,0.954
187,1.453125,16.064080311548466,-2.8981452229434272,-7.451312884339462,-20.91043359181038,-21.46620988019216,-11.00950810451005,17.592660121015328,22.057786287236116,8.913325170300318,31.67614715538506,-10.930768082875593,-10.069391148689157,-1.1490270235587006,-1.7861140992836895,0,Neutral,0.954
188,1.4609375,20.881969626680434,5.5470680392472085,2.935411524760636,-19.75916399247302,-21.3820040910575,5.59338368651301,2.171766977951666,12.483615998741442,25.826981743806197,33.23468730712841,6.990212952178671,-12.482817380100396,-7.8264272798418295,25.468374675054775,0,Neutral,0.954
189,1.46875,15.388247413432953,23.810988285445458,7.386529368240927,-10.580628262755674,-19.046749336728272,3.7821228461630008,-18.009752865517946,15.338247088029522,26.802975226964005,18.42625911793494,20.274683352574957,-10.103263279331609,-9.567609842592361,32.43709285410929,0,Neutral,0.954
190,1.4765625,17.550742810336214,29.145889447142462,15.819611698422552,-5.51212417238562,-20.92771458675852,2.6042302799785397,-33.567907339458976,14.29653403203327,18.3709041559022,10.158213378745844,15.986080780209978,-16.962143699543496,-4.259867180088934,20.57863865856828,0,Neutral,0.954
191,1.484375,19.778633656967806,23.77042948448498,20.294779380384774,-6.649454088687664,-9.760114937653405,7.338144173709168,-31.444623482391684,-6.2540162377499415,12.374854355897037,17.190230341444313,5.623667380037491,-29.198162812832685,-3.6240291457880085,14.164539867681949,0,Neutral,0.954
192,1.4921875,20.721540830352243,13.730943346950706,20.9039163400365,-5.797427463498099,15.377605147980606,7.795631859071694,-17.888618988498294,-24.88551665698038,-1.1429659643552748,13.922395354187064,-5.511207858451876,-13.867128888855373,-4.847785458441692,17.1940825918978,0,Neutral,0.954
193,1.5,25.23198369514956,-7.151981103418836,25.638705661539237,2.787864329756882,30.79126942543104,11.761700145697258,-9.720756997075531,-30.87801387048564,-20.81236249294166,-9.533079288871152,-15.984410858956057,19.0221975775606,1.0909932977684322,13.258666891352936,0,Neutral,0.954
194,1.5078125,17.801418943078602,-18.08339944106206,18.43639750377077,5.093655662908398,24.66506657564829,18.650682873481287,-9.477851881650109,-27.463092429098523,-35.628665193063874,-27.600164544395792,-20.839108505018633,29.111163106970327,12.731295465368223,2.8734680995279946,0,Neutral,0.954
195,1.515625,-6.163959957602393,-5.9287070902065135,-8.8362685098516,-2.0884835533638384,13.009520928890591,7.7863363626834285,-4.426449814579974,-7.732456227523533,-34.90888829419238,-28.748057249140537,-15.428823999854341,21.990592348048732,15.583633459906478,-3.198078831203859,0,Neutral,0.954
196,1.5234375,-19.78908239784932,-1.5047449185478066,-23.010205336707614,3.0264918151836313,11.273339187853956,-20.393009450148295,9.04554456727164,17.853868114811544,-18.290663026521045,-21.248209197059797,0.7383716307604946,21.975032327829112,5.536103113950252,-12.263095014692377,0,Neutral,0.954
197,1.53125,-19.22411155039314,-11.049246066433547,-9.047151184303072,14.143161977455902,8.683600670189362,-35.972087245256404,19.747632674383166,22.16397422170468,-7.244208862437013,-7.761962438075429,14.373415519036936,21.908767286938247,-4.767974008074452,-23.594626742006948,0,Neutral,0.954
198,1.5390625,-23.351074649011117,-8.74494887927791,3.6284693315791197,6.93123454980965,0.5431576263805954,-28.047176562703672,25.636986963799366,10.668533168333155,-4.50295145484672,1.8960781243516769,13.014710812769476,17.861991767056775,-13.835768037781564,-17.098890263642737,0,Neutral,0.954
199,1.546875,-22.417784343648556,1.60963592642706,1.8702844968767456,-3.957897203668301,-0.3739356232761606,-14.984017292966648,32.26046965620621,2.3494412902699233,6.722517119031204,-0.30335679763345347,9.425443222952293,20.08962748472536,-26.603592448107367,1.6413665093723795,0,Neutral,0.954
200,1.5546875,-14.553711148340723,10.236942970615981,2.1239917835775826,-3.5989552067158765,-3.269348449852661,-4.359467304214808,29.509902098733733,-12.498486444805987,14.824942534032315,0.169641474223178,20.56089077518726,16.24583654696594,-31.340307803145013,4.249203995871973,0,Neutral,0.954
201,1.5625,-22.561608431564583,21.02003350973876,10.27817672814706,-10.306846480204143,-18.91706403511719,3.921463935010296,7.664215470162313,-28.008845497137752,7.657331490650779,8.602929923898376,34.230694691831076,-7.688836813371594,-15.707170199003826,-7.184412041926435,0,Neutral,0.954
202,1.5703125,-29.37892507069007,15.640579066297175,18.580631186016554,-27.029150862481004,-23.970595795801056,5.038204027049473,-17.137356293098257,-21.53424122709957,-0.16814617223891215,10.70582000356789,28.52587930227415,-28.347983290494277,7.016697187925928,-5.052527712222519,0,Neutral,0.954
203,1.578125,-5.907247901085202,-11.767482271584399,22.741862703754226,-31.12480642372156,-5.794330368863436,9.975096760332114,-25.695391609763913,-12.305698845170378,0.8288076105809344,6.098947600350571,8.189276093703652,-22.40234720252012,17.59762183770799,12.573690161605949,0,Neutral,0.954
204,1.5859375,20.342182398691037,-24.14424372963386,18.72519860111393,-11.940844571174297,11.81874172495507,26.555165870143462,-21.144519179333766,-13.618680603749533,6.755233515782346,0.7431690655961287,-7.140699037123671,-9.920884973809192,24.337667013701314,20.851568495468833,0,Neutral,0.954
205,1.59375,23.738343895755136,-13.636004020418262,1.4185777014564094,11.783828986251159,14.131993470934994,35.41753764794059,-15.024307398196662,-1.9387759657942105,7.7247311970963795,-11.418211894106557,-14.497634614299468,-13.275103855630267,33.91587562101301,10.215430113433202,0,Neutral,0.954
206,1.6015625,24.863383339414064,-13.456057964195313,-21.401111370031884,20.43762463485159,11.467304842989295,25.097678650244774,-8.678596450445466,11.383025232278925,-0.10675976491883565,-22.905898065579233,-20.34179297922872,-17.239892664966664,27.21958516551947,-3.6862267433299536,0,Neutral,0.954
207,1.609375,26.548736581047923,-22.29245686515913,-30.12272654072816,27.699830186914046,7.4177109425249474,7.409954302376416,3.3069084570460383,6.807701720074981,-6.52972320920173,-11.0465862356047,-17.56802714728304,-9.61242959214244,8.691523759866502,-7.697575636010038,0,Neutral,0.954
208,1.6171875,17.600069909752996,-19.906183634436506,-19.848252337599327,40.5017711363167,-0.822557706911558,-10.755197553878002,13.296439326298017,12.066189656126928,-13.15099506215342,14.028485269120793,-2.527096662308301,-2.5346256994394727,4.724307979083979,-7.4191418665304045,0,Neutral,0.954
209,1.625,16.595094411431244,-13.89586883356989,-10.060019661736776,34.82035203736302,-1.913995973660462,-23.595670901813698,6.591936890266787,29.236115356852604,-26.64835471056794,14.701158369841782,5.649709286327889,6.030227413414209,7.128713739788466,-10.128218766458044,0,Neutral,0.954
210,1.6328125,24.608973661328548,-2.3771759835464104,-12.076256144053113,11.545531149280059,2.75591989234824,-17.700080997516878,-3.7015405605989846,24.15224489444456,-30.088384401016437,-2.4861588030885438,-1.7340678544451804,23.072636993895298,-3.266076547744463,-13.035285836240737,0,Neutral,0.954
211,1.640625,14.138381168094462,21.823300049135696,-10.65327315959093,-3.5829373768003574,-9.082306277360194,-5.403305015623475,4.3545737768355535,7.6563253838104615,-11.350356621536804,3.2238863278203724,-2.9419345118250706,26.187458042346,-17.61182171581086,-18.08819329228399,0,Neutral,0.954
212,1.6484375,-10.60566819126698,31.665216862847423,0.9303850401771032,-8.824866228481804,-29.650286723459228,-12.044242188001698,13.553360825132016,1.229567722580676,11.594244813105728,26.261111542957813,13.009011881777266,3.06899122296975,-21.701518668134668,-24.12612675648062,0,Neutral,0.954
213,1.65625,-24.317230913778843,19.45678157625672,9.880454972906236,-17.984761959005603,-31.88314922867793,-21.212477151518257,0.9597829515300944,-11.543269707685994,21.756708938657233,31.064221876345027,23.93930067300479,-15.04274160021725,-18.43050352852956,-13.757750695622533,0,Neutral,0.954
214,1.6640625,-27.570106437229967,14.489158722059653,14.744326930320605,-27.055003379169726,-21.117918382727822,-8.927853800010588,-13.844139351685513,-26.868995131357206,28.127555328263323,12.161887599594548,11.206589622608234,-9.27296276034745,-20.973506513952824,13.245449103628175,0,Neutral,0.954
215,1.671875,-28.40425840970807,15.27266358901798,13.06694965017272,-18.7505494485358,-9.817874350650841,8.281449168087027,-13.664934263676955,-19.470848714277054,37.0416424867049,-15.430101237483942,-12.162728074192657,-4.717114334364368,-21.30146365243065,27.54718814325932,0,Neutral,0.954
216,1.6796875,-20.369933346233264,8.444851978031716,-7.123028708411059,-0.795706554379882,7.015521189401664,17.514451813095306,-16.987188186055473,1.040064343119011,32.19561694680653,-31.56716845717167,-23.9481403615518,-13.067199827275674,-0.0189701972584162,18.074904285250003,0,Neutral,0.954
217,1.6875,-11.284023422222083,4.16299937985983,-29.77159805084131,1.5603918074186374,21.156503299861576,22.820473483703815,-24.738520582977063,14.450636310253431,12.281107462150073,-25.29549317893747,-25.555019318896353,-16.127863764501466,22.02857248921527,12.296462453285647,0,Neutral,0.954
218,1.6953125,-14.868073980964821,-6.316457035819405,-28.785023445290363,-5.236623106028893,18.23656565585477,12.202155501865143,-11.492175578782247,23.76079242119989,-0.8383541496963061,-17.211768444974687,-27.597716954274773,-14.104083890667198,21.173557768605356,26.42171610677223,0,Neutral,0.954
219,1.703125,-15.920064684584757,-27.168718517105606,-12.833932784381762,-1.4985524744213823,12.756631021035588,-12.561189412349684,16.962713295042573,25.26696483943634,-0.3798513666357679,-21.61103248906263,-19.492088794365294,-13.76521859298085,16.380788406750394,35.1929936607128,0,Neutral,0.954
220,1.7109375,-3.0385458826511114,-23.514589962841075,-3.93469539393822,6.505248538538262,23.4023140957339,-21.198075408803735,28.749834218267267,8.337321215492874,2.018019356133321,-19.898457675757072,0.0719477954983554,1.2260123560337672,13.290277931424098,21.24767124242017,0,Neutral,0.954
221,1.71875,10.932785633046468,5.0737139048657935,-4.831989272213629,7.484460328742807,32.39729485263177,-12.0318725563522,20.670744030909486,-9.192342979292434,-3.7614144098258935,-5.261365448762085,3.7205117674650166,27.392518327793493,-3.1731598361365947,3.0716850364889092,0,Neutral,0.954
222,1.7265625,21.26934005924504,16.356776403645643,-0.9629549322581847,3.183933948259434,19.84422999000042,-10.906369298822987,16.373288336606542,-13.673327389654865,-11.648238506859538,11.316396907212258,-6.117643202911061,31.71387456822535,-20.13222866574304,-6.443156985716795,0,Neutral,0.954
223,1.734375,26.789130648737917,8.030443428308951,16.364782738480883,1.9520583837746792,1.6420138485233187,-13.152517292447742,17.518139662595953,-20.686264889416726,-10.388005893823399,28.483381426071375,3.0541115511262156,15.612763124517999,-18.153063419269863,-12.894927467792721,0,Neutral,0.954
224,1.7421875,17.940060773222218,3.5505763845259763,31.385114252312395,4.463703834568572,-10.13154137382146,-5.882939313521744,4.469193872151591,-24.303358885596964,-13.976159587739192,37.90869517009877,25.085665084257954,13.934390356466485,-3.8835469455296185,-18.218761469922057,0,Neutral,0.954
225,1.75,2.9273023489005556,3.289090745744965,29.95121583641172,-4.446907244288329,-23.144491674396523,-0.5792166312201035,-14.574225330925133,-15.693387469201689,-28.575430443599572,27.07172325850258,29.470211473738015,26.582051754838126,4.608928373600209,-20.880288969553476,0,Neutral,0.954
226,1.7578125,2.8592686221329533,5.126208396128381,19.394421322229476,-21.43416393400377,-27.79627341686331,9.463652278805728,-15.448020404678706,-16.681134758359267,-23.569266526367848,5.735002201535055,12.20292587564986,22.965573952752642,5.283596819648505,-23.772310564332482,0,Neutral,0.954
227,1.765625,9.726382408972638,6.092442868561927,4.081441276924863,-24.489681817029414,-12.06312201170796,33.87730461904564,-9.760705919894303,-18.37374456360349,2.9582834560938958,-8.944821530278407,-10.360523725511213,4.809609082283767,12.163093039937166,-28.492204298235254,0,Neutral,0.954
228,1.7734375,3.6078828452590015,-8.81129591189825,-12.016093998374014,-22.010310230924226,4.523830573719362,40.677713908692596,-19.877833870072653,-0.10868511184148621,16.67133644502601,-9.249182945893798,-20.0097571906858,-6.596919685552901,19.780775899919966,-25.444617198141877,0,Neutral,0.954
229,1.78125,-6.266119962001059,-31.942805735128754,-14.835306633568706,-22.90677147646408,0.4760706342858332,18.18214295989585,-33.00139626191387,13.576232918320322,15.922115571818173,-2.114805615039079,-13.994227710794448,-18.973146327361984,11.742146011489075,-7.355658440275567,0,Neutral,0.954
230,1.7890625,-14.555892586328067,-34.4677912732564,-4.712138493525553,-6.747894413454324,-9.446466311444008,1.298868685411175,-29.392630492514733,16.340130974931878,17.656079591698028,-7.359847139605471,-7.211598320694943,-32.975600619128215,2.613245212613795,10.886963277956335,0,Neutral,0.954
231,1.796875,-26.77663387039519,-18.23429963054107,2.00104123577583,20.619288108583213,-1.6775184875764237,-3.2708279171819576,-13.868899475496134,26.07297225014954,15.683231655428038,-21.536015600907263,-0.6534934756409154,-24.9941012265235,7.3782411840940245,12.061008474262948,0,Neutral,0.954
232,1.8046875,-21.90527228944522,-4.493144178261007,-2.6734295606071035,32.626174197881035,13.045156494695966,-12.737192831021,3.607333843321003,22.443878381171295,-0.32090456832300696,-18.483638887099218,12.509211374343677,-7.9104977667509155,7.833281472493988,4.473228152542817,0,Neutral,0.954
233,1.8125,1.195488723650997,7.383924105737709,-4.405115970529734,32.796971694757985,16.041634744543185,-17.857391797558435,21.672631883987137,-2.8022577010414693,-20.15053167376148,3.517570857390127,18.782804816983397,-10.037301549867399,-5.562474710539147,8.476813180527628,0,Neutral,0.954
234,1.8203125,5.8317927621895045,14.938077587659235,13.556186792959423,33.18024249383494,12.115941113909177,-17.029251825994322,34.35476373873098,-16.46391398237872,-24.49911260473963,22.16751340635219,13.193406575273311,-16.387302365263547,-16.69261350271567,21.459347595572574,0,Neutral,0.954
235,1.828125,-5.297633456367032,11.34382005671849,31.95072721292935,28.257649905734283,-0.8950383780528721,-26.338103205649944,29.18728585686428,-15.366746238677637,-17.953911980741164,18.91573131936996,14.56142304421528,-6.5471848758128015,-22.20506768843874,21.066474130571113,0,Neutral,0.954
236,1.8359375,-3.61932560695906,17.878416798924874,25.00275300271315,10.613700768171093,-25.477028112811645,-31.01626339453376,9.360744663019878,-16.395126774803927,-17.714744644268738,-0.5919708093859088,25.364988897524803,10.216043337364853,-31.22404958863951,5.486098239684041,0,Neutral,0.954
237,1.84375,2.739402150317658,35.29858542755212,6.651186595434071,-11.87080396153979,-32.85006378304785,-10.93100335339565,-4.138927776637198,-4.879996573870801,-16.572347027887616,-8.055303408046255,25.582580359828633,18.53870146733203,-33.32443781535017,-6.997296603711921,0,Neutral,0.954
238,1.8515625,7.088841410459958,28.048416330194048,-7.057154811192519,-20.712122003541303,-14.632863848524405,13.657436220856166,-5.5957863597704876,19.89924371334586,-5.854400203626558,-1.175407096422354,6.06392481862334,16.73613974245152,-15.03626564890838,-11.265843399231231,0,Neutral,0.954
239,1.859375,20.453939559793703,0.020419825383480195,-19.526452089572558,-15.022056308647453,-4.679277877385416,23.28410948540209,-7.40897494299819,28.21658650999725,1.1479555332606521,-3.4826344058402032,-19.566494887765415,10.144848064137074,10.468755552508275,-11.983765801665562,0,Neutral,0.954
240,1.8671875,24.39376235465394,-16.737026963784135,-23.397990510247965,-12.561367081938787,-9.30755253503791,25.784065717927565,-9.05830642536877,21.50206712358578,-3.3356587026430944,-13.100627872313625,-29.929342379563842,-4.132074032783106,24.706284785524094,-7.065696850043507,0,Neutral,0.954
241,1.875,4.340291893169503,-19.70273696858575,-16.831811310027025,-13.587334708312424,-5.417039148844919,18.847124984794796,-3.0980854966999773,18.530422036975573,-5.921022134139763,-18.355535826440978,-22.96588863357143,-18.442294805355516,27.175744179599246,0.02072769824653231,0,Neutral,0.954
242,1.8828125,-9.431919453154816,-12.48775043264856,-18.743866335879517,-4.359422170419712,6.316398905392824,0.7423721300101795,0.7530143559533735,9.19930158230473,8.539719772714818,-17.96353628654179,-14.902470112989242,-13.305971068240563,23.887242556976897,-4.5937208465434045,0,Neutral,0.954
243,1.890625,-4.989432303567159,2.034863504174837,-26.649575885252126,5.215801087502281,15.32685201430593,-4.1669403953472095,-7.430068138989571,-8.095798719908741,29.195889302838005,-6.432191579053506,-6.199711723155351,-4.45212088334472,16.469613890746267,-12.264610055819348,0,Neutral,0.954
244,1.8984375,-7.907729833909599,2.4655055341324013,-15.03496144255589,-0.32409042177830805,26.792433541652915,3.5647874267491235,-11.616297791679756,-12.4871886446324,34.01699285465824,11.158091963320661,6.35442101969082,-15.721751873499532,2.9472537748791092,3.9851505656800095,0,Neutral,0.954
245,1.90625,-14.61659548243411,-8.677558641329245,11.61606298668759,-4.6794517272540155,40.367697855577156,-4.288644479399125,5.236924648723003,-9.40931263142911,29.998478890355045,23.710526190975592,5.706981751786644,-25.014328944064243,-10.84467545076098,29.023709504576907,0,Neutral,0.954
246,1.9140625,-8.317014010619843,0.3988352528799406,23.408764716845198,3.51532534593053,36.52665396205404,-15.699669044790783,24.485651204555424,-15.39686115116319,29.58542959640939,30.75375195460898,-4.649780846941458,-14.621949530175726,-10.41170959463585,25.933234367779,0,Neutral,0.954
247,1.921875,-8.140231705676722,20.532490941134217,13.416164507542344,4.819579111332577,10.414708496567346,-10.66018502821925,21.63993120127317,-20.277529939558743,17.183605891039626,24.089878159425194,1.107302047703742,-0.9628901589239469,-2.690398547250242,8.104137889320654,0,Neutral,0.954
248,1.9296875,-17.57089458480223,17.688824411320446,-1.9987130481660782,-2.792001845655645,-8.550164844736466,-4.86401407531366,7.597928155436182,-18.64295562647775,-9.805515697361761,4.900217929834005,16.12303194901711,13.544474353715238,-6.902967457737818,4.012662474313986,0,Neutral,0.954
249,1.9375,-7.360025757406408,1.2634212540111367,-10.686793519112491,-1.8845103464962805,-6.927946854961636,4.18240075208988,-2.045941085736893,-15.687776533602364,-23.965063237696956,-0.011176901584243892,14.051709832795876,31.682013215425215,-12.672880435038387,4.681362195262479,0,Neutral,0.954
250,1.9453125,14.417977816551737,-10.80486524322867,-12.764479916517452,1.6718686528275666,-7.371931473499892,23.419363704456128,-16.941467429157484,-1.5177675359977307,-19.75448747254784,7.252173647273806,-7.647327980440757,33.20862422599733,-5.800813102307285,-1.6064015088620156,0,Neutral,0.954
251,1.953125,20.04966518166111,-24.211393691781954,-11.067129741141345,-6.077058267343911,-13.806493939610743,25.28103824335422,-34.733280680518035,19.244499159751662,-16.360196782309018,-5.97773833818791,-29.45520685955219,17.48062255799361,0.33393620782162303,-9.25438699175652,0,Neutral,0.954
252,1.9609375,19.247502141185905,-28.178810613390098,-6.839055207136183,-20.179734319897143,-13.013579186718925,8.411850339510933,-30.311914042492646,23.321395888969707,-14.811835978362046,-34.893727530434695,-32.4031793403237,14.645084662222043,-0.913627861002269,-17.261795462992808,0,Neutral,0.954
253,1.96875,19.966392119456934,-15.251675905697915,-7.562605718870839,-26.291688935718206,-16.638901622731314,0.2458516894914325,-8.001843028411596,12.01179022494083,-6.326888981468562,-44.999274085720145,-20.098934680702108,24.882826248231126,5.084889244046144,-29.155042226233,0,Neutral,0.954
254,1.9765625,11.276135565450023,-12.046394072773875,-11.4086793034566,-18.218033797388504,-23.280952557678635,-3.241349268945888,4.469336267672653,-0.1311294685709754,4.120984588887531,-26.043649502997006,-7.974053587851507,19.581119980426916,19.528115903567098,-35.92348619734784,0,Neutral,0.954
255,1.984375,4.423562551881038,-22.121309538026832,0.7866773706347312,-7.438594217837908,-6.007283007213034,-13.813619533877386,6.866650455115433,-14.953087082881762,4.58924854942801,-0.6081506463844013,2.0802128169828675,-1.0928554427220045,19.0174360559842,-23.39209718024403,0,Neutral,0.954
256,1.9921875,11.0417175404613,-12.802537580769357,27.712601634769296,-0.31141378453947355,19.38744125876157,-19.688714228992943,12.425019415179861,-29.3016459337591,-4.836916499297795,6.587891494805495,10.962331491826154,-17.584132777894087,-2.027343937089147,-0.7516081183749974,0,Neutral,0.954
257,2.0,13.572405123567998,17.712796088679372,43.67420268011033,20.069330197395672,21.31563011122293,-15.955693828348661,24.1972193427995,-21.232738109286437,-1.0054647924857134,5.964565380795734,15.456567068722656,-21.946957613005385,-14.669244685160002,10.333166934415074,3,Push,0.774
258,2.0078125,3.0490399162755244,41.02560091311469,38.429451463969386,50.81646089272304,17.51401731737833,-14.755179256130754,35.28456037956445,7.332162978696019,22.989136199599894,18.802895592547728,21.38083894429461,-14.109894430560434,-11.10166965715278,11.94101836113125,3,Push,0.774
259,2.015625,-9.58976935634063,44.85959025123626,23.021188285109762,55.56353310291559,17.7120884310911,-16.137841675175107,32.42103375374615,22.31971000997676,32.76014963243571,31.966672770942722,31.383763915153217,-4.037282040896809,-16.524110197924756,19.907435534833315,3,Push,0.774
260,2.0234375,-24.978771506457917,27.591820450750713,7.22154361724165,29.22640827006494,1.1214421509074435,-8.304289320199004,22.694780324444633,18.19447364384927,14.403983079552031,26.657843805378832,31.41256418882506,-5.409496006408602,-29.06601200522575,32.990107568659795,3,Push,0.774
261,2.03125,-38.25762265137155,-1.4015274026422078,-9.013892908607524,5.656366829983653,-21.513938060529057,4.551637453408405,13.869240766542978,13.76700002704371,-5.090221739272518,6.792381976106692,11.250293299964843,-20.586081608148852,-21.391114662074923,31.037430573703453,3,Push,0.774
262,2.0390625,-28.346646413648294,-12.84959569871017,-20.40664104677142,-6.8788959755142685,-25.735360208414555,12.285162991003668,-10.604060674401017,9.698315699101048,-14.417760108117449,-13.127041182773127,-17.862932591972275,-30.91586293015109,4.615393583334617,9.06876829853741,3,Push,0.774
263,2.046875,-7.561550792240285,-0.002215171958539486,-14.90621053805204,-20.126356243647997,-17.735919304074656,20.7414217857183,-35.26453736291245,11.99212604916806,-22.51927286230867,-16.18999124671624,-31.188654332610703,-8.271270241083727,23.32383559756601,-2.1286183478014555,3,Push,0.774
264,2.0546875,-3.8173948891934653,8.592142030386302,-2.7359244348844234,-21.3307412901098,-14.326826215266312,29.824005434848317,-27.247711963207426,24.42654740302496,-26.02732922438829,-3.5529658512944025,-14.808323185502026,30.396835758116577,32.038101529295226,11.537420775612526,3,Push,0.774
265,2.0625,-1.05993035046291,0.8337359497321284,-1.717303826800855,-4.316541850637215,-14.221981582665428,26.34161070563657,-8.834659252331996,25.6558885692704,-18.750066754910623,7.511465487930969,9.933996126809165,38.15316544218914,41.26263093477483,19.40303806792293,3,Push,0.774
266,2.0703125,14.891378124429323,-10.406065976164573,3.1788668528829884,1.6679823275409305,-4.714580602773103,15.74636725965982,-10.195837065072922,10.680458095117677,-12.232639747996505,11.795392543931342,14.630144494559588,17.866615383082355,32.83144506177989,4.8864038362752,3,Push,0.774
267,2.078125,20.0649382237001,-18.95593995536917,18.071298104251827,-14.725479136373588,6.710033909189393,5.724882685454584,-15.808582389018774,-10.250361443418296,-16.191378523896866,6.399281595656089,6.540719644752193,-3.2932344728762732,-2.357208087333329,-15.87455052774451,3,Push,0.774
268,2.0859375,14.277987259045648,-16.210527657839428,13.087803883222207,-22.769398015132513,8.114439442630141,-16.09544148049582,-7.270561946949357,-33.20926114504669,-15.35622948352102,-8.401186921617569,1.5011626193188687,-20.567644614969048,-23.326165339246767,-31.301557003822335,3,Push,0.774
269,2.09375,21.21885330442759,6.084897694845112,-7.046161735216826,-6.648773952171225,16.241438997181135,-35.32895567128199,6.877498995637258,-36.145230119672306,3.299209855485099,-10.189038687274609,2.956389532760763,-22.782183733229076,-10.74011724876034,-36.75536110741075,3,Push,0.774
270,2.1015625,30.06213912778486,23.007052654405882,-7.711882609205153,12.074115281168003,32.05210048972633,-22.45602148815084,12.060156650197321,-10.155035654335482,26.79178397804427,11.430830805248704,15.86107581339249,-3.768900348776615,-0.3650250733523017,-21.39105735357873,3,Push,0.774
271,2.109375,22.79898929584358,15.654754949721276,3.964176643808852,14.758142252565676,31.039673364129087,2.1160766360597574,14.128490895116101,11.749088032356354,36.55038534866355,31.87152101081021,29.92255881578057,8.926807331026673,-7.1679035183117215,10.204706337996571,3,Push,0.774
272,2.1171875,12.384253628576893,7.719395880281464,2.2473784624393476,6.872768103932303,20.406388782772087,9.856647124792953,20.713457534312035,17.308144783688277,28.71540768081892,24.35889536165252,25.53499486093006,-6.777655306846306,-13.650509542088791,22.126537634178476,3,Push,0.774
273,2.125,3.8836481737748194,2.1635812682921536,-16.829480593368537,0.8989559420720411,14.251669705612507,9.199678661752412,13.534710751636732,20.76522465551237,17.268281356259628,-12.108639510371479,0.7874347320486863,-28.40969001302158,-20.525808373202903,-0.08610783017749846,3,Push,0.774
274,2.1328125,-14.01024354122213,-19.08437745435782,-38.435479275423425,-4.1506384624534745,-1.4354090367164416,1.351934931240343,-9.43746683155177,9.728928320659483,10.857329599226112,-44.89242049595576,-33.75286365371045,-23.25269268072293,-29.96369282946642,-16.845007228999954,3,Push,0.774
275,2.140625,-29.53625992432247,-33.50064549351585,-41.05469608506295,-10.463126136924892,-24.49547663970077,-14.246203481448658,-18.873878164017725,-17.59297458255891,2.2056441340180606,-40.58649978547896,-52.22692293677548,-0.8886031031642658,-20.847124408583014,-2.2987418427233957,3,Push,0.774
276,2.1484375,-28.938442790739565,-26.681085187731586,-24.208828970773766,-6.415716443429828,-31.5145952582946,-9.755596573864832,-10.455731445346599,-26.818787641116774,1.8038114087103192,-11.2272621546062,-32.7992175640828,15.844000539327416,12.044283519474938,19.640197401346065,3,Push,0.774
277,2.15625,-25.71154689811324,-18.021821724052604,2.2857462042713417,1.8960622207521747,-20.720733963601205,17.29971023862779,-4.663681251240557,-16.483612387760974,16.624466055393857,9.358730328648,-0.324329548516908,31.23968202208495,38.8902893930322,23.180146655133573,3,Push,0.774
278,2.1640625,-21.72027684060672,-2.5373731791746854,29.879223402237933,-8.073459693367619,-8.812605642078097,23.445572830276053,-5.075317638626163,-16.09731945442267,12.791048513520233,9.816791419651071,9.87914518800175,38.676415823516905,36.77023871618936,8.054796581718593,3,Push,0.774
279,2.171875,-9.653622664661425,16.64880768294714,29.801823564858203,-25.76765491745541,-1.8117171044301754,-2.0749736492993147,-0.6688170721191227,-19.63745034235972,-20.042533347402102,2.9170130164086068,4.454420551789726,23.77484249226218,14.660931563953138,-11.243342071216652,3,Push,0.774
280,2.1796875,-9.49172484018862,10.754390469792853,-0.9751872584501973,-25.562900402563084,0.9971936718479589,-25.063906589687175,8.850572372252996,-12.003741550206687,-41.05604937531375,4.928447844549615,-0.9593837428607863,9.65060004844693,-10.647389043041043,-23.412529863492612,3,Push,0.774
281,2.1875,-20.516879252348833,-3.0175679682720666,-17.214071776677415,-10.286099821462042,-4.900326518247086,-35.08300295115813,12.9434300757272,-5.729166219846934,-32.51557867390477,14.317790513396195,-7.504376886637552,10.279477117688756,-29.71547003832995,-26.95567998041625,3,Push,0.774
282,2.1953125,-9.51812590432271,7.33734991104911,-3.018094167184948,8.421984545488238,-9.615814392032846,-31.962825974883067,15.839644801756785,0.5610622261316238,-13.871693642307855,22.13618741851758,-6.187326661030134,3.500828883177552,-30.6175741320707,-19.95167283931147,3,Push,0.774
283,2.203125,16.482614153591815,27.303568456397475,11.176185042120482,30.378493774568426,5.6777734708004255,-0.4273417952114542,24.302210861364955,18.229590214621627,5.797586121022484,25.499196457487386,11.811248884183609,-9.717261127641171,-10.621342374878534,-6.287235509161517,3,Push,0.774
284,2.2109375,31.761751393861687,38.38364237073972,6.150478877815881,48.813885302500054,27.30793676488157,37.162955083907256,22.42899058312055,29.27491233559269,26.725515504642722,17.524773770396184,24.562348468720604,-13.821668168098743,10.473291855073745,-0.5965384680589818,3,Push,0.774
285,2.21875,41.107156942901774,32.64768603880346,-8.501909133433097,45.44476673156638,24.255426980997814,39.62640659551453,1.2586407573788327,24.169578162258283,35.026585839944595,-2.682966513664649,6.578972061030947,-16.40009353323626,15.879872913880487,-1.4039605086962714,3,Push,0.774
286,2.2265625,37.83530191552252,-1.2132413968656404,-18.2823785263397,17.98928137233414,-2.762666491033838,17.92715583081855,-23.998254374023006,17.27601434010655,17.63343801461339,-22.681574465352632,-29.486354040347653,-22.654743330698807,8.750200573520964,6.396906598001323,3,Push,0.774
287,2.234375,11.79623895337256,-38.40370143047,-16.620336109603098,-10.46744549884961,-27.129885547113624,3.5369175437791442,-35.276706415007766,3.734682550083251,-11.723050746847006,-30.852671141909386,-47.02696271796992,-27.968962857211114,1.5695956411459326,16.34062235628913,3,Push,0.774
288,2.2421875,-6.964230577792656,-34.49074478872174,3.9851860580107523,-20.72736748135771,-34.118710823889174,1.528319104002723,-27.48958798499798,-14.745643205639151,-22.92031802020335,-25.8504198533604,-31.844498942946654,-27.046756309358578,5.592593621603729,15.41202302562537,3,Push,0.774
289,2.25,2.119484432355554,-2.638222436674198,35.81585663261731,-17.468800328994234,-26.68567296304088,10.553561059253834,-14.928050001814569,-12.15081420715609,-7.415550513613283,-17.498900298811208,-2.3737101110214582,-13.658282913562331,14.553490300315536,14.784507242445676,3,Push,0.774
290,2.2578125,14.340482054983964,12.507961833596175,45.96509313230411,-14.486841525497884,-5.739193395282258,22.069547925161327,-8.520458471857367,2.8102763671280484,7.3051936927085634,-8.010195324549048,20.086434032585583,4.577919231929939,15.626375566027557,26.677840768882817,3,Push,0.774
291,2.265625,8.19376391878191,11.466024547034783,28.407016282848303,-12.1426634123128,18.54335570072738,8.720494792830607,-1.519099151348989,2.607347004832823,-1.9919082933366734,8.86325687371498,27.623342951616294,18.771602127282733,15.575513864651354,37.37103239371955,3,Push,0.774
292,2.2734375,-8.618708997643639,7.840218806806879,14.14669837383827,-7.019723108786427,18.16232666974603,-30.65881547139543,3.865116197142304,0.25527753778705,-19.579778491868705,21.539545423882497,22.609784180435092,27.54085046014854,9.419800795151698,23.229643464593345,3,Push,0.774
293,2.28125,-26.974379156357262,-4.270791198292432,8.566216771734458,-9.12777672248935,-3.6295310386940676,-51.120939853858275,2.3452982668456155,9.804967981787057,-26.446385391384347,14.987653382482414,12.278214083420442,17.971632294628122,-21.720723800956605,-12.622866251992589,3,Push,0.774
294,2.2890625,-42.14854571315262,-6.494083560212481,-7.567828317691661,-16.47067539029184,-6.68026325339436,-34.192255570738254,10.88820396976603,15.413323194187074,-30.162459052417326,-2.933162465869728,5.628975751826693,-6.296514009883238,-49.71331556130019,-36.1929540744441,3,Push,0.774
295,2.296875,-33.433594278480655,13.724360819850137,-26.103747035297232,-7.788777651563436,16.46761372502501,-12.477222165823814,35.671369488111964,16.112104208061634,-29.464962155727072,-11.970349905473864,13.234628761151749,-13.384541232625386,-38.915510261020046,-31.122549869861093,3,Push,0.774
296,2.3046875,1.7318832326074043,19.40771631496399,-24.051708040449093,13.85764097278871,35.87295702913032,4.090728579877029,44.403931830893384,17.859097366108564,-9.153049628685576,0.6580779269058028,25.79451808911093,0.8984043482234227,-15.265400393420014,-16.194323976760323,3,Push,0.774
297,2.3125,22.590312690130748,-1.9262300233718745,-6.189671506130315,21.185519020634814,38.04101485924795,21.384813551580727,19.95729556219638,4.413175213910458,16.182139746871535,19.93948434850394,14.325847820516351,7.344324943873447,-4.622233946462873,-5.95021048621622,3,Push,0.774
298,2.3203125,11.878466289933382,-18.58860154711938,4.73389573138582,8.514885564092621,22.217563898715444,16.908895676299878,-8.38583197173332,-22.32216556371659,21.583105176639066,12.222129230235934,-16.181999676864876,-4.858945790851159,5.605388077808202,-5.875982941409871,3,Push,0.774
299,2.328125,-5.102615799211275,-28.711074845491098,3.0719013601278125,-5.557817491908927,-13.09987919603719,-0.650069790671604,-20.40537736907633,-36.58083780160741,17.662481027009054,-21.501419793311754,-30.380631300008336,-21.066311997206256,16.369783894258752,-22.091005761219552,3,Push,0.774
300,2.3359375,-12.957421672488142,-37.49920590672518,-0.7772762903174616,-10.835155689438261,-43.375659420994914,3.2315588038924146,-24.57273024289209,-35.20345163896056,20.906767191433755,-37.717703965338735,-21.518207333854356,-32.05276155997003,17.79177316013619,-33.998962458501474,3,Push,0.774
301,2.34375,-3.4007734428915044,-23.91900713138416,-1.291255171706031,-13.010770871198533,-38.205558160155235,11.059474000115172,-21.865296786146843,-26.958870666739212,25.623438705783123,-14.079125443801821,-4.161698857635648,-28.78776873425929,15.460562954451175,-11.75203557238395,3,Push,0.774
302,2.3515625,24.33174476146678,-0.7253759351179379,3.4291515060326696,-12.048802207550798,-10.322833431104046,2.6634706219620674,-6.294919145462031,-7.853628782592171,24.322027617063426,21.799068053532963,15.597082822223209,4.593156406812518,20.433702442369587,28.663054523761712,3,Push,0.774
303,2.359375,38.820462150121784,6.706213556209366,14.638408689674318,-1.7853621465524385,5.049361114639423,-1.9271881973173088,12.072242552486667,13.927639050491239,14.928798472883386,37.50385677892338,30.775927653507946,43.01883941138967,26.75717225406937,44.945166507649496,3,Push,0.774
304,2.3671875,19.25577095381214,18.685443248917217,19.262815232003028,2.7581421758367015,-3.090153747634419,-4.15037910823466,9.846358317462508,15.97766960533761,3.5201351235887683,31.874106312843637,30.606481664794103,39.46059270516939,11.67640419450286,28.73847973805865,3,Push,0.774
305,2.375,-9.57392658411121,35.570307334158066,-2.7727964984532605,-14.944412844414456,-16.69668850882516,-15.535207891678652,-11.92000570481661,3.4015041421817562,-4.6632829762826935,15.223496791848728,11.760571450984855,12.571000336182172,-16.605955944878833,7.225918624641846,3,Push,0.774
306,2.3828125,-24.20026795397349,23.140292413160818,-40.20091657125966,-28.3633801020207,-17.377797183062597,-15.576715573590327,-18.63552836822995,0.46143960923462113,-16.860527251942703,-8.19505311068042,-9.911321684307772,5.96037035848729,-22.424276004870496,-0.7519198894092483,3,Push,0.774
307,2.390625,-26.446975171726415,-1.0672711534994281,-50.79136511211506,-7.99667883786252,-4.47869364459463,1.2973732658977002,-1.8866908137269496,4.133084429905122,-23.577795656252377,-22.256142762157516,-11.983437484626208,11.074001625546364,-11.555294078347345,-0.893784187854068,3,Push,0.774
308,2.3984375,-12.857576069084892,-2.0402686528125877,-23.78230326105057,25.042869281152797,21.09874614733254,11.87022020107192,12.34062621942633,4.799127017313792,-9.241175530659248,-12.608768748635814,-3.3999080887019417,15.108608999627005,-6.891198008745768,0.7096316576592347,3,Push,0.774
309,2.40625,10.005394054430306,4.256330659951442,6.2470667127652835,42.96900023982857,44.20230133259708,15.817503064581746,16.514625054692964,9.108505860976429,6.924642457035702,-0.8128694780251693,-8.835759168870899,23.86690296753955,0.664166946517681,2.721788165915774,3,Push,0.774
310,2.4140625,9.726148204973788,6.073147906996049,17.248154561241254,47.97981057323715,30.487750082367377,25.239890091973617,11.761443291933753,4.139941960572919,4.371561355968481,-10.642951027303809,-25.44425393375559,18.27839103484191,11.183191195397619,-2.813605258400469,3,Push,0.774
311,2.421875,-10.61848921683947,5.239789381313441,13.317132139474667,40.39986682975606,-7.191296992596024,25.00481146180877,-10.001232211692034,-19.325884742126856,-7.354790841305234,-29.40376367971593,-34.59645014919194,-14.384546113828618,9.329307178665612,-13.93964721915103,3,Push,0.774
312,2.4296875,-15.17751620543645,-16.750393045152844,0.8709685352239909,14.486149374216,-23.434649363787155,4.611563908415967,-37.05398654850051,-29.91635473103991,-10.805883468506233,-32.81932772340831,-25.81541882124935,-39.324107154514756,-1.9950205670936128,-17.134937279633967,3,Push,0.774
313,2.4375,-6.174471288289087,-38.41414675338402,-7.572968953190773,-17.071024436704274,-21.246667460743822,-13.834926585928521,-40.893815510781465,-13.507143702057345,0.17915780498786393,-12.39167986270937,-7.175763116909021,-31.681715360783464,-7.627767160499452,-11.008491638930208,3,Push,0.774
314,2.4453125,5.190570356014193,-17.780261590119615,3.3028524476254306,-29.74802514175427,-16.84660939055055,-20.902165081872234,-12.491661526978028,11.402641101636322,14.057298557877361,15.447642594838374,3.740456816112647,-15.465668514405873,4.278890598036234,-2.8735535869547344,3,Push,0.774
315,2.453125,26.26430460116834,18.627311969628984,23.375276135422826,-17.505501867314138,-0.9634370106723735,-27.30762891212352,21.603115553848287,38.80838963410238,23.14102219118515,27.367140427184484,12.272422868315735,-9.308153783622345,17.215775685422727,4.882257742844237,3,Push,0.774
316,2.4609375,34.72026168185634,32.77574914520772,19.62650434974384,-4.893657998595379,14.405255793021075,-21.792491349917196,30.940502400050665,50.15192202219666,31.377790964111426,27.010989604906243,26.387574644918367,-2.975654644075998,5.556261693398311,16.14583782755303,3,Push,0.774
317,2.46875,10.682317203876659,26.678580246265415,-11.012156619588938,-9.037622835660928,7.813023850336467,-5.972389194043699,23.934550724619513,22.98114695973101,21.240043241887015,27.447259299682116,25.095352726101165,5.2082320803131505,-14.386239658989972,29.174544911672974,3,Push,0.774
318,2.4765625,-13.274697422634675,2.2680684826169406,-31.18651685290698,-14.406798367127891,-1.8635905150387122,-10.58587238536014,18.15002984112811,-9.747261337568036,-19.97818776681877,23.88206990715922,2.671881786779543,5.2411645317699715,-24.35428334568542,24.274044959284204,3,Push,0.774
319,2.484375,-13.52943313283765,-23.14769999565986,-23.117774831968653,-9.851599693578486,9.85256729955348,-21.327687975710766,6.694844024134572,-19.352568831041296,-53.56218695805478,7.725788620577751,-12.843969442906719,2.7067473441920358,-33.31407675398994,-2.423795369222702,3,Push,0.774
320,2.4921875,-9.560121472504308,-20.247406274633065,-3.9193107938550735,-4.598711938799285,26.292888173264416,-6.331406999381466,-2.8389396570698127,-25.799280261169763,-45.346817479246624,-17.26962811572205,-12.9123839349078,9.53589646212567,-30.18040256213483,-18.563465674801,3,Push,0.774
321,2.5,-8.289867176650741,-2.8351423390297645,13.102064596109445,-0.7504680575479549,28.2246921948228,15.643303011740091,8.880382705377858,-22.27663353054636,-20.91406036962757,-28.551882688751903,-15.467857095654864,15.007351235864144,1.3759672830857452,-8.716239060109444,3,Push,0.774
322,2.5078125,-3.5825882689575144,-5.036873489041477,27.26432121355348,10.171674082895874,24.93916133211046,32.16865827140719,22.853748864881325,2.0123855698945476,-10.133170751437223,-11.382153556184461,-18.298993560678433,8.073876436140239,37.71388770762951,5.149265167667583,3,Push,0.774
323,2.515625,-12.017786558604808,-22.135564895311287,35.43735281979981,21.433427544395624,17.572868984575493,47.07528089293217,6.783309303553555,7.059978016917712,-2.729224851024285,6.426307323330224,-5.750730116429687,4.045418707133666,44.16982992380341,3.9568503725334008,3,Push,0.774
324,2.5234375,-30.935166122354175,-26.011400251219484,28.71361954699563,9.93004123596224,-2.9282949119101542,34.29891583992533,-29.40549492636465,-14.046397595670395,5.227314045428169,-2.205636076180095,10.24403812513015,4.649750089017001,26.529723239457034,-13.707548971566828,3,Push,0.774
325,2.53125,-27.66222452058178,-15.801713264761617,9.673353164521506,-16.091398831984122,-23.179028691857663,-5.944954889362756,-49.2958906564824,-19.659763156133103,-3.0334168334534493,-18.14952641396779,9.984611850033598,-8.162956044615385,11.909993605692492,-36.5340282169249,3,Push,0.774
326,2.5390625,-8.506825026828565,-3.089847698807929,-2.56612861303616,-17.68531188311362,-27.05041158346156,-29.03187246729484,-42.50893559347765,-7.767488933762035,-15.109676831021991,-16.712108648323316,5.115334455740644,-26.479626508106772,1.5492472433657087,-43.22982257246336,3,Push,0.774
327,2.546875,1.0079631595488414,17.129989806427396,-7.340562508097497,-2.0641585320687117,-24.494923427016953,-21.650108328199725,-23.84710495368425,4.821933055685212,-1.1962444147166624,0.3613273734099711,15.156555034781345,-29.8677201725339,-5.119099270152796,-20.637160903324304,3,Push,0.774
328,2.5546875,13.739296627000947,34.175963857290725,-17.478511059470996,-4.262419227575825,-26.44574249417925,-6.687180430105286,2.990109264988561,23.33678937399933,30.508226831327818,20.112803640420662,31.5342031586922,-15.262814054808118,3.290902924563444,17.906430162809706,3,Push,0.774
329,2.5625,29.932906989249403,31.500573344341017,-16.91238578766898,-10.106949652401935,-20.10775295174321,3.5120766252989615,31.81307022662817,28.81287540435722,45.39522662912793,27.813272789423504,34.2505845302844,8.182425441961263,11.605315027425691,39.001313950901284,3,Push,0.774
330,2.5703125,25.88035232661833,25.067156771208637,-0.7964497185835215,-4.5284404297169845,-2.0858345160029734,5.380648769737792,37.197627204255994,-1.098679923334065,32.26967949472308,16.390405767135665,20.095564523478647,24.057320025113178,-1.7827131211033627,25.481606653709868,3,Push,0.774
331,2.578125,18.201835366272622,19.644305421202777,-3.1441794381348522,-9.024988445337872,5.813482968901487,-7.868681513570295,14.419990179957233,-32.55312510989877,11.548194101585231,-11.065470252977638,-1.0939647758067732,22.2697563386437,-27.511231188248072,3.6508988864471625,3,Push,0.774
332,2.5859375,23.613358006685083,-1.3803345522867125,-20.21279880508115,-17.63991708775132,2.0017684756580025,-20.880249617914156,-7.391495003803561,-36.765190326634055,-0.8001054974988757,-40.404022860151755,-18.278335751347186,9.101571064379474,-40.53853698158157,6.491415060563328,3,Push,0.774
333,2.59375,17.641532442623692,-22.20465541645313,-11.71673243390461,-2.6108070979255045,5.88774935485011,-2.8492466162251215,-5.473550041300356,-30.683000138020237,-9.879181435484192,-38.42671784510418,-25.891353394964113,2.454384464410057,-27.995672815357132,24.18073353649182,3,Push,0.774
334,2.6015625,2.8879903750573224,-20.774386965326308,14.643993173341261,32.05542445418053,17.103991415949313,29.836834045315403,10.368026892519007,-11.024543859105382,-16.17859082669888,1.0813777031579628,-22.988027679424132,19.568194686522627,-3.9838354705522603,28.96810560267624,3,Push,0.774
335,2.609375,4.81840528031329,-8.6171241998607,25.20172697341395,55.35334531626141,23.82376265413711,33.58560437221594,15.378986307206732,27.393859798771807,-10.671402262709975,28.37901318837418,-5.2485763211395415,43.52063640803223,14.505977871986799,19.180028433025228,3,Push,0.774
336,2.6171875,6.423655449130002,2.311873448402835,19.962550681991214,45.47617245584357,21.989725334753842,14.098237438982842,6.655041442485013,45.55554372386334,-0.5946800208049425,16.653076763980444,17.21852930048375,33.83342672152199,27.44377143046291,5.672630262635736,3,Push,0.774
337,2.625,-13.685388029904919,7.26024995424792,4.513601339842376,17.39856852677265,11.199693078815866,-8.502672614981835,-5.993306499019153,30.146159423013785,-3.5827706481510675,-1.7875591668906554,17.350787365700274,-4.066664530972205,27.598929584796046,-10.415350471825576,3,Push,0.774
338,2.6328125,-32.98534872764263,-2.577081394178302,-26.100222074842552,-5.3637800624048655,-9.477573585644299,-34.01446605337166,-24.232132913843213,12.082985159321794,-11.493588300982099,0.27818404174977895,-0.4268463426268436,-30.171154696536636,8.059380744500778,-24.91293759436549,3,Push,0.774
339,2.640625,-33.805643209848526,-11.475558628065352,-48.62473280763858,-21.523482604458135,-31.92220713616348,-38.95086773278672,-33.15198781005424,2.144434579171175,0.5374992264280354,17.137876144646288,-5.981719677810718,-37.38394294538368,-12.989961285563236,-26.679883815035403,3,Push,0.774
340,2.6484375,-32.403520434584536,4.377175990474296,-32.820692460421306,-27.503735980337574,-29.778693637901476,-14.191320074059295,-9.287619245501853,-0.728069994051385,22.919528763613346,29.072026758735433,3.0280946825939505,-30.554957787456402,-15.981500146420732,-19.473063156029564,3,Push,0.774
341,2.65625,-25.36277246312195,26.699769840611324,1.2877751264650952,-18.411113364291754,-0.18218071738267305,3.3481134875145293,27.350694910220902,9.045047537523994,26.96545300397084,20.49284869360644,11.496849293517409,-7.635100608938713,-5.887307051396537,-15.642748562183819,3,Push,0.774
342,2.6640625,2.5657908967988927,26.4683523737283,13.234860080817874,-7.456073750766756,18.39352430574045,4.06162248293698,39.202137184275706,15.77441124377096,19.33777699555388,-0.8847000879843989,11.614923377128656,3.159081680720769,-1.2096418951151202,-9.718407410616186,3,Push,0.774
343,2.671875,17.010787610965608,6.213419303109123,0.9933559011816984,-9.222116019252972,15.70919035762591,6.936070401690948,22.704881636306425,0.6115623294155899,14.841007827704649,-16.02442400560524,-2.3668954067295633,-16.654153614267763,-6.446177826320729,3.9041469557055177,3,Push,0.774
344,2.6796875,-0.400132774120844,-26.450804027068322,-8.17455082652714,-17.38657940445597,12.549399704456356,9.70348050545449,-2.092671041157581,-20.85423932925672,2.8192374813747034,-25.3673409858309,-26.26520090363274,-32.275676357404755,-6.928001745241394,9.794878464807791,3,Push,0.774
345,2.6875,-3.358394048098442,-54.25108206193182,2.8255836588770786,-12.710006536948018,5.406365720499741,12.952504850156583,-17.890427542188363,-24.304652385799486,-13.430412015059042,-34.054767372473314,-44.65172430644435,-17.50286841396646,3.247692348683815,-0.6105977325303584,3,Push,0.774
346,2.6953125,15.668483176707092,-40.2738310051179,21.309404658066327,1.7295798718674937,-0.36985223563934044,26.689764599272653,-23.422436256251604,-11.92281968646266,-13.12450338818523,-29.482669338739903,-42.728286365080166,9.641317024337457,12.485319701286752,-8.026560236184787,3,Push,0.774
347,2.703125,24.58665509924745,0.8849726697539175,29.4892356622138,9.026606127300662,17.715825664027076,37.21248048327838,-20.97362599747362,8.688704834755605,-2.1051063662856278,-10.708920770097986,-13.841787367466116,27.533246996175958,18.272720437030493,8.796954129544279,3,Push,0.774
348,2.7109375,34.31796721860687,13.207238410487893,28.513334489689544,13.566080020128307,35.91562240656069,23.755927595170828,-4.6134332014234145,33.27032175280689,-3.974031964783083,4.143731100548186,22.995873013218766,31.326191017630727,27.60426487225647,33.27222559534315,3,Push,0.774
349,2.71875,44.562429026234,2.2998452072780964,12.481988281012274,16.96487882957004,16.554007992460928,-1.460423967790291,7.566781216862804,36.021117581038396,-23.505856702618317,12.662515391421707,30.398247511611217,17.28314460220121,26.243529247089615,26.020251882019075,3,Push,0.774
350,2.7265625,21.987447191721845,1.5436730287098213,-18.644499026179336,5.402872418337775,-19.952842641603198,-15.767022611052125,-8.929898363954022,7.926073569907546,-42.13272256845846,18.52675398807043,6.741598117539622,-12.4740157232529,1.7635874926378587,-8.718330049259002,3,Push,0.774
351,2.734375,-15.271466688204145,5.768903388795128,-29.917374363949314,-14.792915480825114,-39.58606600840341,-25.631750011360676,-26.518694752804173,-17.36380560255437,-41.68626469760103,17.00990853216736,-7.20420760481933,-28.255253303615593,-16.507164315340496,-30.54931740817902,3,Push,0.774
352,2.7421875,-24.438255813367743,17.386325462664267,-11.06683632154343,-19.613802105473482,-45.34270631987254,-32.12908068546854,-13.143884055693931,-30.138584214083423,-26.455921051869073,12.111585458794632,1.4025641130474744,-12.514070169860059,-11.794290171647475,-29.4014198080732,3,Push,0.774
353,2.75,-15.629736787393346,35.71993233638923,4.809275777837868,-4.821703583201483,-37.71582491289424,-20.145922542735022,12.258144832981158,-38.92911217898038,-4.797600377228934,8.466201864036744,9.212177926209401,-0.33516496085852143,-12.930013056289557,-17.92966526068234,3,Push,0.774
354,2.7578125,-7.893404874001261,29.415520704822026,11.246804644580367,5.411288516407799,-10.260739878478628,-6.041049114127964,29.747680517409524,-24.84403138086534,23.063614323817788,8.548326984088016,14.597749182825169,-10.227695697068413,-23.94908499018375,-1.1314307184628656,3,Push,0.774
355,2.765625,0.6043577449080204,3.5915559882829813,23.01163539447775,-5.09685245323906,12.455610102038658,-4.833314186614056,41.393094089632484,0.5966192049486878,40.02955991030812,12.966013154393842,17.853983656585182,-12.14588632114462,-22.71180001985055,9.905140049618526,3,Push,0.774
356,2.7734375,-11.188071213477677,-8.690221790587229,28.87411654958171,-18.526524777570927,6.028050188751324,3.4972313178348795,38.94404934172361,2.820587774421174,30.068890080526486,4.239679691080605,-3.2580112548034967,-1.6267088443382631,-18.85270020570253,1.810221090711814,3,Push,0.774
357,2.78125,-44.56302830352718,-13.956386646418814,18.123481735402017,-16.173789188186994,-10.871603273190846,14.695446485015895,14.935798917777966,0.6974250905859534,7.907849301451127,-21.82459506607053,-36.8417968256608,1.6591515718315872,-21.227714967899637,-12.70265000704518,3,Push,0.774
358,2.7890625,-47.81124387634645,-22.157069395439354,5.327978635492716,-4.346724291020973,-6.961475360727396,6.207141636073076,-14.159907767927496,11.461482721490897,-4.259715535685374,-35.691954577105626,-38.62644656514105,5.683615756147848,-9.294094914572572,-2.5682567849143894,3,Push,0.774
359,2.796875,-11.600819062820948,-16.996873139491846,0.7688219659114748,12.45123774330742,16.26607557765771,-2.479698452068603,-25.653389970040294,12.006305745723335,2.7231533395602954,-17.348228019241226,-1.1061324618238073,20.981111894501637,20.106637526484384,28.8578293042975,3,Push,0.774
360,2.8046875,18.49499503226947,-2.074454985706874,-3.041508743390642,37.402015406417185,35.18307249183245,6.746371013574631,-15.153195832447535,10.534351352511152,16.937481214067354,19.439804389819514,38.16964364992773,33.316410377179565,43.587041621411494,42.360998100971756,3,Push,0.774
361,2.8125,30.51191512017446,7.498187374805082,-10.063092962858017,53.681019014608914,37.02837960799884,8.558534427365329,-2.8263780603753,22.163743657840893,17.17608595667862,38.832245185736866,46.13292550743513,29.944434728583836,44.181469944571305,30.134635571444754,3,Push,0.774
362,2.8203125,30.57364540023032,18.584367851382712,-13.498010677914948,39.24073293705574,16.556027949689046,-2.6436106147847696,-7.49304920700772,17.817579827496722,6.329139219701856,21.682087225606352,27.842360579245234,22.752081054627908,19.9396143258656,15.60745511615707,3,Push,0.774
363,2.828125,10.506348087667297,23.8814798260285,-15.849624521318596,4.426613931479771,-21.45596642892907,-6.559142219318316,-15.998707737422166,-5.461692316622843,-5.920693006803137,-6.7690731824096915,6.650677182258859,19.952941582542675,-11.704548418008523,3.4150785157846633,3,Push,0.774
364,2.8359375,-7.716152178460815,4.098696131179854,-26.540243685749996,-21.500924265572205,-42.075760318280416,-13.781845331605169,-13.886932050691158,-15.66733911431087,-23.503036419193016,-18.90822029944219,-4.045256982910228,2.319850960731601,-25.06933687334599,-9.89296248540698,3,Push,0.774
365,2.84375,4.800919456712042,-15.588097131272598,-28.85825151658887,-27.945889177562105,-22.61089187496116,-23.555298529601473,-10.333947263347365,-17.12662490557811,-34.428214255613184,-14.669986231458378,-2.837821919403036,-24.43750817325277,-19.176509198624323,-17.690355913970194,3,Push,0.774
366,2.8515625,25.034567595142455,-9.093713923345648,-2.4964158685604056,-23.957358780871317,6.050178628618192,-3.7963601179109587,-3.0622073990980194,-16.34680833820803,-17.64591576023391,-4.166277974574625,-0.10336555606682873,-23.996623885664313,-5.176414053447291,-17.75772807444302,3,Push,0.774
367,2.859375,23.004927779696065,-3.1783370723649713,28.6911907979662,-14.987819041355088,13.719016931524688,29.235284595386652,16.95515548308431,5.087332255201387,14.990384262994576,-1.8476864910843158,-1.8426335801099936,-7.719855557867111,13.083595434131274,-16.76366307126495,3,Push,0.774
368,2.8671875,6.947898757568658,-10.69162993025778,32.31732417846052,-3.2688749447248573,8.99235353225488,36.39234811347028,31.384138446949084,28.194014731758134,28.7160857123314,-12.177442203439673,-7.299041042684207,-10.256807254090369,16.45595258185002,-21.24815365195543,3,Push,0.774
369,2.875,-14.374345396283031,-16.812454049573443,8.569374334814718,-1.4600366309911874,2.7710335731581877,28.06942288338685,19.180545484270237,23.383978128143557,19.170330755611932,-23.638002632159836,-24.618163677123555,-19.995060123799224,-5.400723722615128,-27.10559084288052,3,Push,0.774
370,2.8828125,-35.995374676313624,-31.963614223480135,-23.26283208878176,-13.1394206387755,-1.7013635267354767,14.622199231644068,-4.785964650493546,12.889586829306541,13.86444489473801,-25.11359398538554,-39.19296375196228,-22.621241099743607,-19.667942039267864,-24.669414443040388,3,Push,0.774
371,2.890625,-31.913914697507913,-43.19678302724936,-36.25984355670042,-17.138441230536326,6.301429875627747,-9.037857840861033,-12.978212983197501,14.82108526588547,15.482545533123671,-6.037128810676036,-18.584761961128496,-25.318177774382267,-7.031104646171573,-15.536767490614293,3,Push,0.774
372,2.8984375,-1.4513617459582822,-10.790773723920182,-23.593576124956027,-0.12229904906506528,24.881173929045783,-15.637894808450966,-9.356720499125831,6.530665572684497,8.01937938787677,26.026477769364423,19.557027911262075,-14.008668719370702,8.581417801573613,-5.927035665701502,3,Push,0.774
373,2.90625,14.050896304715009,36.36770838770279,-6.870116169749972,19.89070840545729,28.64823205199925,3.066422507421226,-7.6626226979897325,-12.378950688092914,0.7867260716913231,40.12362119619059,30.74885345712942,19.21305907257286,16.97396154321024,10.437880438569422,3,Push,0.774
374,2.9140625,7.5889006833807535,44.378697306412754,1.6776558745439798,19.501009631475565,5.2272008509499965,5.127500931012693,-2.4849150916742566,-17.97240551230917,-0.2676188702695401,29.76074195308066,17.064107492855477,41.123496326369256,23.771609662550652,35.76654727841445,3,Push,0.774
375,2.921875,4.48442788545852,26.497387855286465,-3.2827013277748667,4.160142869826208,-22.19747854122366,-18.71490490461565,4.968552932769084,-21.964862035460342,-10.54899999338437,16.474042693381072,4.535559137400771,28.356927954520245,11.816015923165098,42.35336714992808,3,Push,0.774
376,2.9296875,-0.353253679985326,10.962991941662267,-18.874444177171444,-4.480676429014741,-32.64195383826392,-35.76083406329252,6.2969046267385895,-34.93494469523053,-28.834371921471885,8.578580790254254,-4.994287718364693,0.4440288321907975,-24.883225825070397,11.718524861909465,3,Push,0.774
377,2.9375,-5.484502461901087,-1.5470890436483775,-12.590089226855383,-7.513078734821216,-34.405764555868046,-37.046827546934516,5.762026762913509,-26.909760259862708,-35.863584706174294,-0.7978414087190507,-15.951341190410226,-14.614644701637005,-52.49745589060959,-16.111709952735907,3,Push,0.774
378,2.9453125,10.964717102179726,-1.6497046764110543,21.788712997786014,-12.612477276998037,-30.694218809460924,-23.527695795920092,10.92791678818431,-1.355691386077937,-23.72424096713612,-15.986015776003004,-19.364533120486563,-10.670160090021117,-44.88975986677754,-4.878442200153723,3,Push,0.774
379,2.953125,29.228984385961876,12.621699201178052,40.91075183741031,-6.9538420340893445,-13.290718198158888,11.831128445787165,21.170304269539628,9.808818797069595,-6.278823772379483,-27.761420123967135,-12.686488580661694,2.153997628907438,-15.902709182999812,14.56395847638921,3,Push,0.774
380,2.9609375,19.414327784051792,10.446155291293799,29.862198278669318,4.868946777490831,1.6481301129036403,42.82134735234521,22.635808018533595,17.91326084661346,-1.6104592090614527,-21.174434132549187,-9.401758482841391,12.173850730145233,8.836117442957496,11.481096682753876,3,Push,0.774
381,2.96875,-1.340289095386178,-13.728787252703068,11.749416590337942,-2.7881634922086898,-0.4118706056292405,33.53884835192742,7.061893576902364,21.877992958849177,-6.9522994852475755,-4.2156935142372225,-16.36006513158627,4.328369123282551,21.540365667511246,-0.6754860869497241,3,Push,0.774
382,2.9765625,-12.20944333863159,-23.93730071159607,-5.731386475978851,-21.204684648195897,0.6547947386093926,4.5731657235075565,-9.380597578349702,0.1391396072245774,-7.69731926035697,-0.5856374347459173,-18.31117361051101,-24.045496995651,25.01027969316818,-15.804000008803493,3,Push,0.774
383,2.984375,-19.46317571284512,-14.401689463128143,-19.736680800351685,-19.25249864008814,15.154360892821803,-4.31452654070246,-16.675589297403448,-15.043764883330468,-1.322669733147868,-11.048178342918876,-3.0809450462491657,-37.32165470272358,16.98103501553195,-33.3496684069589,3,Push,0.774
384,2.9921875,-20.599354494806853,-2.7994624284456564,-17.918056402784078,5.183180757501246,24.931293302576055,-0.40939955396549665,-23.93312731230759,-6.180593803674063,6.963045324651171,-12.213400189061895,16.025412562684966,-10.517570499794783,4.269203712011331,-27.602122682497313,3,Push,0.774
385,3.0,-8.611726446171899,13.728802405429747,-4.444571846872021,31.648587199932805,24.552741077775526,1.9546727910639699,-29.203742616899575,-6.014806350934821,20.806953928131243,8.958569546430681,23.651050285876636,22.998447802287718,9.002533933051218,5.52342519680936,3,Push,0.774
386,3.0078125,-3.8775219473127707,25.459112040362037,5.238484122463893,45.49517106493643,24.03897014248511,10.037886239346193,-22.256728363423044,-8.253814403695337,39.67270433195225,33.43165805686353,21.576244786981224,32.85577914957736,25.178973383885698,27.56681832801303,3,Push,0.774
387,3.015625,-12.694810830241423,19.21788819774558,9.502630886975577,45.9530720955721,19.434458158643935,6.574277465023343,-9.85183765721168,0.15971171279323415,39.66278845858137,32.701450366880096,17.896620082047658,30.49249752551926,16.631802946010243,19.840307794452272,3,Push,0.774
388,3.0234375,-9.77266749625355,11.181909817387215,14.849920559359882,34.935002246338186,1.2277796981292721,-19.638220386900215,-5.602913624957278,-3.0285431646782683,7.480558873353735,9.72325912566981,14.018364072011266,23.73057297149379,-11.233083474109801,4.597842896177791,3,Push,0.774
389,3.03125,-0.007818654793176671,0.5258928642811814,20.389335487305,4.985290111567734,-17.092250270460212,-31.248557507849068,-2.5326569808018258,-5.355717947132798,-27.253166871593617,-11.614397544616647,1.0119777638687073,11.363585572762252,-22.106777641055825,2.2697872624538222,3,Push,0.774
390,3.0390625,0.2868056735492235,-25.950118875702472,17.29443300865526,-31.57797704041308,-17.962430235526128,-11.441876153396999,14.675220402308259,15.22074658306757,-32.581128442040864,-23.218057698441218,-16.817414495380017,6.40706265581746,-21.261883984946483,7.056951122500712,3,Push,0.774
391,3.046875,8.764537233567744,-38.92596048506237,5.359034104103775,-36.034825461434195,-13.03418346124813,12.615872586454186,33.53726749900089,33.987976274522886,-16.46673237843614,-22.411795728780287,-16.971420711054673,12.68315478273389,-24.40383213047503,3.668444711497247,3,Push,0.774
392,3.0546875,26.815229528711246,-19.383592641237048,1.4327175104963024,-12.42709218600127,-10.882959017580552,25.255844823739626,32.61204792290742,35.90693863898671,-0.9164074843052932,-2.891687286822603,-3.2274413561317887,8.44187776088712,-17.383311169058768,-3.3194820548962225,3,Push,0.774
393,3.0625,29.99249517254644,-3.865521764435372,7.156551893589818,-4.707228818257642,3.5255206338174396,24.587545385032836,20.93564121171628,29.988855008082535,11.087384930730765,18.502438918092388,4.2380182944343066,-13.237521085093142,2.100151891102503,-3.4448407684180387,3,Push,0.774
394,3.0703125,21.7487536317691,-6.2131704539103465,-1.5355070813302436,-13.50886114639079,22.160893134256213,7.059372001988797,11.369132013658335,8.6416134004333,16.523641821242606,15.595996215978094,10.84017628585557,-25.769543815034588,14.235100042205143,-7.717266054829569,3,Push,0.774
395,3.078125,17.298641867202253,-3.200961876751973,-25.086666454604213,-13.781692429337802,19.142674441073986,-15.619402846430523,-4.785841969207464,-24.753600734503497,6.415561318313808,-4.457536732501577,18.675069532004475,-23.564840265198107,9.412528771959716,-21.45157624356234,3,Push,0.774
396,3.0859375,4.7271065195112065,-2.4418941451118252,-37.61636405233152,-9.37147852447848,3.7634433688137054,-21.27208486871675,-23.491655978537132,-38.97220334297956,-5.256669402866088,-11.135259974151035,16.70699112651127,-27.965234527938822,1.4678592105611226,-30.96451047207513,3,Push,0.774
397,3.09375,-15.67349498610833,-4.990309020706015,-32.458108798175786,-6.111978921060964,0.3478050706402924,-14.979657262909456,-22.785237853726393,-25.54736171581088,1.1779588360132205,8.294343464204204,11.064777987394024,-28.9534043998327,8.79242640514615,-28.55009184838734,3,Push,0.774
398,3.1015625,-15.099337232503188,19.779954172798696,-13.041964195505514,3.5051622222584005,3.7451011968115213,-17.650887647414695,-6.7643467588661,-7.737358532065511,20.077119872204285,31.69104758848031,9.270724856115548,-11.734141335934854,18.06320537481649,-14.508350617622124,3,Push,0.774
399,3.109375,-3.729177733879796,49.59661450055805,18.191766098625582,16.167610785570304,2.7163730761358065,-17.47722076188039,-3.3016333091439867,6.1410804119284,34.335475665934354,26.640853531687974,10.913606910386646,2.3684717752544486,5.506103122185856,5.9473811533479495,3,Push,0.774
400,3.1171875,-11.345599800700706,38.45127195923929,36.27641373013846,15.97007954338003,2.0386045420332777,-4.960784328888279,-13.4327455381972,14.562590481951288,32.08665586715222,-4.763774152043456,11.532904969122919,4.939787933676026,-12.110863846289512,24.047904097573802,3,Push,0.774
401,3.125,-20.350150321857274,6.667616017834059,18.61285498750445,-1.3020894536778704,-5.534743377797264,-2.789816977261647,-13.868108352424137,2.642649651973743,16.13622916562324,-30.164000880462538,-4.781393010687057,10.150107146599368,-13.985532775557132,31.564637673184016,3,Push,0.774
402,3.1328125,-22.94219054190719,-17.881335869783943,-14.662004348068027,-14.367088091180044,-29.37386374793345,-4.407190885995113,-3.0647184028598637,-14.19835257078342,-2.1392399608730623,-33.60356349177186,-32.10424454448977,12.025337484258998,-16.539459671907785,20.963435806695415,3,Push,0.774
403,3.140625,-34.88317193674221,-32.710067832719645,-24.518282587705503,-9.600732599760917,-45.02563025466675,12.165231517519928,7.180457241641142,-6.794344358015845,-21.132273930923994,-25.128246683388294,-40.623723226447375,0.9780725709640405,-18.02790416662586,5.464170944995073,3,Push,0.774
404,3.1484375,-28.80368552181048,-16.74529174276175,-6.107155299634594,-3.1445481224833545,-29.779249694229623,27.606474871594,17.73896393589414,8.036511214335935,-33.19391622862842,-17.545614977727276,-29.337347998375172,-6.803378910248706,7.7692605594077415,13.311202932730218,3,Push,0.774
405,3.15625,7.524106951709234,13.613508614272439,4.753811512461413,-4.633768564383145,-2.4098237870091523,28.965105734652674,23.79128817663645,8.713895050896692,-25.272182470203745,-10.468863323913016,-14.46372481595782,3.987169410764278,38.06244364472656,38.42597847985144,3,Push,0.774
406,3.1640625,29.52010460719279,9.089403804624165,-8.410184256642859,-5.390384444391226,14.214453929439346,30.584398875919,12.850722449756606,2.279115471493156,-13.844291895249146,6.664413068828365,4.324623844637946,14.921031379998597,33.06388286785551,41.47980883030655,3,Push,0.774
407,3.171875,25.399171417120755,-8.098010941604992,-18.689453656015747,-6.547352435963701,22.26340711215536,23.940416098242164,-11.459704063907528,-14.040747670485777,-20.028914097910484,27.31442371600328,22.072810401350182,1.4726756880570182,11.205318550543225,9.012169311864056,3,Push,0.774
408,3.1796875,19.323650054593024,-2.385847369108869,-16.72893179411256,-13.522609458320526,20.269656197228322,-2.101403557604339,-30.88943180458096,-38.64657109301991,-27.576105135105337,27.450905521374647,18.880759276545398,-21.10450529034783,2.663409797658284,-27.13801717133518,3,Push,0.774
